title:test0826, start timestamp:1629975491.659043, stop timestamp:1629975591.327375, headset type:INSIGHT, headset serial:A2D2052F, headset firmware:932, channels:43, sampling rate:eeg_128;mot_64;mc_8, samples:12523     , version:2.1, ,,,,,,,,,,,,,,,,,,,,,,,,,,,,,,,,
Timestamp,EEG.Counter,EEG.Interpolated,EEG.AF3,EEG.T7,EEG.Pz,EEG.T8,EEG.AF4,EEG.RawCq,EEG.Battery,EEG.BatteryPercent,MarkerIndex,MarkerType,MarkerValueInt,EEG.MarkerHardware,CQ.AF3,CQ.T7,CQ.Pz,CQ.T8,CQ.AF4,CQ.Overall,EQ.SampleRateQuality,EQ.OVERALL,EQ.AF3,EQ.T7,EQ.Pz,EQ.T8,EQ.AF4,MOT.CounterMems,MOT.InterpolatedMems,MOT.Q0,MOT.Q1,MOT.Q2,MOT.Q3,MOT.AccX,MOT.AccY,MOT.AccZ,MOT.MagX,MOT.MagY,MOT.MagZ,MC.Action,MC.ActionPower,MC.IsActive
1629975492,79,0,4200,4241.025879,4173.846191,4234.871582,4220,16214,1,15,,,,0,4,4,4,4,4,100,,,,,,,,,,,,,,,,,,,,,,
1629975492,80,0,4251.794922,4238.461426,4161.025879,4229.230957,4191.282227,450,1,15,,,,0,4,4,4,4,4,100,,,,,,,,40,0,0.192013,-0.233398,0.690674,0.656982,0.604501,-0.82472,0.013184,-63.17202,-60.299122,47.09676,,,
1629975492,81,0,4220.512695,4230.256348,4156.410156,4204.615234,4176.410156,450,1,15,,,,0,4,4,4,4,4,100,,,,,,,,,,,,,,,,,,,,,,
1629975492,82,0,4174.871582,4234.871582,4172.820313,4215.384766,4153.846191,450,1,15,,,,0,4,4,4,4,4,100,,,,,,,,41,0,0.192309,-0.233154,0.690674,0.656982,0.605966,-0.826673,0.015625,-64.15229,-60.250744,47.052681,,,
1629975492,83,0,4203.589844,4246.666504,4184.615234,4227.692383,4166.666504,16214,1,15,,,,0,4,4,4,4,4,100,,,,,,,,,,,,,,,,,,,,,,
1629975492,84,0,4250.256348,4248.205078,4183.589844,4212.820313,4212.820313,450,1,15,,,,0,4,4,4,4,4,100,,,,,,,,42,0,0.192013,-0.233398,0.690674,0.656982,0.603525,-0.836927,0.016602,-65.034538,-60.326839,47.072826,,,
1629975492,85,0,4280.512695,4243.589844,4166.666504,4207.692383,4246.153809,450,1,15,,,,0,4,4,4,4,4,100,,,,,,,,,,,,,,,,,,,,,,
1629975492,86,0,4260,4244.102539,4170.769043,4211.282227,4246.153809,450,1,15,,,,0,4,4,4,4,4,100,,,,,,,,43,0,0.192013,-0.233398,0.690674,0.656982,0.615244,-0.829114,0.022461,-62.837791,-60.455135,47.031143,,,
1629975492,87,0,4228.205078,4243.589844,4174.871582,4193.846191,4206.153809,16214,1,15,,,,0,4,4,4,4,4,100,,,,,,,,,,,,,,,,,,,,,,
1629975492,88,0,4215.384766,4245.641113,4158.461426,4183.077148,4178.461426,450,1,15,,,,0,4,4,4,4,4,100,,,,,,,,44,0,0.192889,-0.233398,0.69043,0.656982,0.609384,-0.81593,0.025391,-63.851486,-60.391159,47.113258,,,
1629975492,89,0,4182.563965,4251.794922,4169.230957,4208.205078,4161.025879,450,1,15,,,,0,4,4,4,4,4,100,,,,,,,,,,,,,,,,,,,,,,
1629975492,90,0,4204.102539,4250.769043,4173.333496,4228.717773,4150.769043,450,1,15,,,,0,4,4,4,4,4,100,,,,,,,,45,0,0.192055,-0.233398,0.69043,0.657227,0.602548,-0.824231,0.030274,-64.883446,-60.154133,47.18716,,,
1629975492,91,0,4268.205078,4246.666504,4165.641113,4223.077148,4197.94873,16214,1,15,,,,0,4,4,4,4,4,100,,,,,,,,,,,,,,,,,,,,1,0,0
1629975492,92,0,4225.128418,4249.230957,4174.358887,4215.897461,4232.307617,450,1,15,,,,0,4,4,4,4,4,100,,,,,,,,46,0,0.192055,-0.233398,0.69043,0.657227,0.595224,-0.829602,0.012696,-65.812202,-60.120258,47.193859,,,
1629975492,93,0,4207.179688,4253.333496,4178.974121,4210.256348,4209.230957,450,1,15,,,,0,4,4,4,4,4,100,,,,,,,,,,,,,,,,,,,,,,
1629975492,94,0,4294.871582,4252.307617,4182.563965,4204.615234,4199.487305,450,1,15,,,,0,4,4,4,4,4,100,,,,,,,,47,0,0.191176,-0.233398,0.690674,0.657227,0.596689,-0.826185,0.018555,-63.298428,-60.2094,47.259705,,,
1629975492,95,0,4271.794922,4247.692383,4181.025879,4207.179688,4201.538574,16214,1,15,,,,0,4,4,4,4,4,100,,,,,,,,,,,,,,,,,,,,,,
1629975492,96,0,4210.769043,4245.128418,4181.538574,4214.358887,4211.794922,450,1,15,,,,0,4,4,4,4,4,100,,,,,,,,48,0,0.191176,-0.233398,0.690674,0.657227,0.60206,-0.824231,0.033204,-64.26606,-60.289627,47.259148,,,
1629975492,97,0,4222.05127,4247.179688,4183.589844,4214.358887,4234.358887,450,1,15,,,,0,4,4,4,4,4,100,,,,,,,,,,,,,,,,,,,,,,
1629975492,98,0,4221.538574,4250.769043,4175.897461,4208.205078,4225.641113,450,1,15,,,,0,4,4,4,4,4,100,,,,,,,,49,0,0.191176,-0.233398,0.690674,0.657227,0.601572,-0.818372,0.017578,-65.07711,-60.302017,47.258644,,,
1629975492,99,0,4238.974121,4254.358887,4181.538574,4205.128418,4197.94873,16214,1,15,,,,0,4,4,4,4,4,100,,,,,,,,,,,,,,,,,,,,,,
1629975492,100,0,4260,4255.897461,4177.94873,4201.025879,4195.897461,450,1,15,,,,0,4,4,4,4,4,100,,,,,,,,50,0,0.191176,-0.233398,0.690674,0.657227,0.602548,-0.82179,0.020996,-62.457401,-60.313168,47.078751,,,
1629975492,101,0,4209.743652,4255.384766,4166.666504,4192.307617,4197.94873,450,1,15,,,,0,4,4,4,4,4,100,,,,,,,,,,,,,,,,,,,,,,
1629975492,102,0,4230.256348,4250.256348,4165.641113,4186.666504,4234.871582,450,1,15,,,,0,4,4,4,4,4,100,,,,,,,,51,0,0.190877,-0.233643,0.690674,0.657227,0.608896,-0.815442,0.019043,-60.279106,-60.383018,47.036472,,,
1629975492,103,0,4293.333496,4241.538574,4153.333496,4184.615234,4267.692383,16214,1,15,,,,0,4,4,4,4,4,100,,,,,,,,,,,,,,,,,,,,,,
1629975492,104,0,4237.436035,4236.922852,4161.025879,4189.743652,4209.743652,450,1,15,,,,0,4,4,4,4,4,100,,,,,,,,52,0,0.191716,-0.233643,0.690674,0.656982,0.594736,-0.817884,0.019043,-58.199009,-60.326252,46.998425,,,
1629975492,105,0,4195.897461,4240.512695,4176.410156,4194.871582,4167.692383,450,1,15,,,,0,4,4,4,4,4,100,,,,,,,,,,,,,,,,,,,,,,
1629975492,106,0,4246.666504,4246.666504,4169.230957,4188.717773,4216.922852,450,1,15,,,,0,4,4,4,4,4,100,,,,,,,,53,0,0.191716,-0.233643,0.690674,0.656982,0.611337,-0.813977,0.027344,-59.736397,-60.095718,46.904366,,,
1629975492,107,0,4247.179688,4251.794922,4175.384766,4187.692383,4215.897461,16214,1,15,,,,0,4,4,4,4,4,100,1,41.666668,1,4,4,4,0,,,,,,,,,,,,,1,0,0
1629975492,108,0,4202.563965,4250.256348,4180,4192.820313,4153.846191,450,1,15,,,,0,4,4,4,4,4,100,,,,,,,,54,0,0.191716,-0.233643,0.690674,0.656982,0.616709,-0.821302,0.03418,-61.060234,-60.187313,46.879528,,,
1629975492,109,0,4235.384766,4242.563965,4175.384766,4182.05127,4215.384766,450,1,15,,,,0,4,4,4,4,4,100,,,,,,,,,,,,,,,,,,,,,,
1629975492,110,0,4276.410156,4239.487305,4167.179688,4172.820313,4280.512695,450,1,15,,,,0,4,4,4,4,4,100,,,,,,,,55,0,0.191418,-0.233887,0.690674,0.656982,0.611337,-0.823255,0.020996,-58.961838,-60.209934,46.677727,,,
1629975492,111,0,4225.128418,4235.897461,4154.358887,4173.846191,4171.282227,16214,1,15,,,,0,4,4,4,4,4,100,,,,,,,,,,,,,,,,,,,,,,
1629975492,112,0,4214.358887,4235.384766,4158.974121,4173.846191,4161.538574,450,1,15,,,,0,4,4,4,4,4,100,,,,,,,,56,0,0.191418,-0.233887,0.690674,0.656982,0.593271,-0.827161,0.016602,-60.482761,-60.230293,46.795181,,,
1629975492,113,0,4312.307617,4247.179688,4157.94873,4173.846191,4313.846191,450,1,15,,,,0,4,4,4,4,4,100,,,,,,,,,,,,,,,,,,,,,,
1629975492,114,0,4331.282227,4251.282227,4152.307617,4168.717773,4299.487305,450,1,15,,,,0,4,4,4,4,4,100,,,,,,,,57,0,0.191418,-0.233887,0.690674,0.656982,0.610849,-0.818372,0.025879,-58.50193,-60.188801,46.721447,,,
1629975492,115,0,4207.692383,4238.974121,4156.410156,4168.205078,4164.102539,16214,1,15,,,,0,4,4,4,4,4,100,,,,,,,,,,,,,,,,,,,,,,
1629975492,116,0,4152.820313,4241.025879,4165.641113,4182.563965,4156.922852,450,1,15,,,,0,4,4,4,4,4,100,,,,,,,,58,0,0.190535,-0.233887,0.690918,0.656982,0.596689,-0.829602,0.027344,-56.659367,-60.211273,46.714901,,,
1629975492,117,0,4236.922852,4254.358887,4183.077148,4179.487305,4216.410156,450,1,15,,,,0,4,4,4,4,4,100,,,,,,,,,,,,,,,,,,,,,,
1629975492,118,0,4328.717773,4248.717773,4177.94873,4156.922852,4268.205078,450,1,15,,,,0,4,4,4,4,4,100,,,,,,,,59,0,0.190834,-0.233643,0.690918,0.656982,0.609873,-0.828138,0.019532,-55.060875,-60.111866,46.709011,,,
1629975492,119,0,4301.025879,4238.461426,4176.922852,4160,4259.487305,16214,1,15,,,,0,4,4,4,4,4,100,,,,,,,,,,,,,,,,,,,,,,
1629975492,120,0,4186.666504,4244.102539,4189.230957,4177.436035,4160,450,1,15,,,,0,4,4,4,4,4,100,,,,,,,,60,0,0.190834,-0.233643,0.690918,0.656982,0.606943,-0.834485,0.021973,-53.622231,-60.142033,46.524261,,,
1629975492,121,0,4205.641113,4248.205078,4177.94873,4172.820313,4161.538574,450,1,15,,,,0,4,4,4,4,4,100,,,,,,,,,,,,,,,,,,,,,,
1629975492,122,0,4323.589844,4251.794922,4186.153809,4174.358887,4294.358887,450,1,15,,,,0,4,4,4,4,4,100,,,,,,,,61,0,0.190535,-0.233887,0.690918,0.656982,0.596689,-0.829602,0.027344,-52.207821,-60.109364,46.597248,,,
1629975492,123,0,4281.025879,4257.94873,4198.461426,4186.153809,4286.666504,16214,1,15,,,,0,4,4,4,4,4,100,,,,,,,,,,,,,,,,,,,,1,0,0
1629975492,124,0,4184.615234,4255.897461,4184.615234,4173.846191,4164.615234,450,1,15,,,,0,4,4,4,4,4,100,,,,,,,,62,0,0.190834,-0.233643,0.690918,0.656982,0.606943,-0.834485,0.021973,-51.054485,-60.139778,46.423676,,,
1629975492,125,0,4302.563965,4254.358887,4176.922852,4152.307617,4210.769043,450,1,15,,,,0,4,4,4,4,4,100,,,,,,,,,,,,,,,,,,,,,,
1629975492,126,0,4422.05127,4256.410156,4170.769043,4149.230957,4288.717773,450,1,15,,,,0,4,4,4,4,4,100,,,,,,,,63,0,0.189948,-0.233643,0.691162,0.656982,0.598642,-0.831556,0.014649,-53.306328,-60.047523,46.446907,,,
1629975492,127,0,4317.436035,4260.512695,4177.94873,4156.410156,4222.05127,232,1,15,,,,0,4,4,4,4,4,100,,,,,,,,,,,,,,,,,,,,,,
1629975492,0,0,4253.333496,4265.641113,4185.128418,4152.820313,4189.743652,450,1,15,,,,0,4,4,4,4,4,100,,,,,,,,0,0,0.189948,-0.233643,0.691162,0.656982,0.579599,-0.820325,0.032227,-52.04314,-59.964493,46.408001,,,
1629975492,1,0,4340,4261.538574,4171.282227,4134.358887,4238.974121,450,1,15,,,,0,4,4,4,4,4,100,,,,,,,,,,,,,,,,,,,,,,
1629975492,2,0,4358.974121,4257.436035,4164.102539,4121.025879,4225.128418,16233,1,15,,,,0,4,4,4,4,4,100,,,,,,,,1,0,0.190248,-0.233398,0.691162,0.656982,0.593759,-0.830579,0.027344,-54.136299,-60.06921,46.492615,,,
1629975492,3,0,4270.769043,4260,4166.153809,4123.077148,4157.94873,450,1,15,,,,0,4,4,4,4,4,100,,,,,,,,,,,,,,,,,,,,,,
1629975492,4,0,4194.871582,4257.94873,4169.230957,4124.615234,4121.025879,16236,1,15,,,,0,4,4,4,4,4,100,,,,,,,,2,0,0.189403,-0.233398,0.691162,0.657227,0.607431,-0.828138,0.032715,-52.610668,-60.043827,46.568768,,,
1629975492,5,0,4200,4250.256348,4157.436035,4120,4121.025879,450,1,15,,,,0,4,4,4,4,4,100,,,,,,,,,,,,,,,,,,,,,,
1629975492,6,0,4288.717773,4254.871582,4143.589844,4118.461426,4181.538574,16196,1,15,,,,0,4,4,4,4,4,100,,,,,,,,3,0,0.189991,-0.233643,0.690918,0.657227,0.610361,-0.836439,0.036133,-54.70689,-60.14061,46.577488,,,
1629975492,7,0,4373.846191,4268.717773,4163.077148,4126.153809,4225.641113,450,1,15,,,,0,4,4,4,4,4,100,,,,,,,,,,,,,,,,,,,,,,
1629975492,8,0,4350.769043,4270.769043,4175.897461,4130.769043,4217.436035,450,1,15,,,,0,4,4,4,4,4,100,,,,,,,,4,0,0.189991,-0.233643,0.690918,0.657227,0.595712,-0.838392,0.018067,-53.303646,-60.108086,46.645153,,,
1629975492,9,0,4277.436035,4265.641113,4173.333496,4124.102539,4209.230957,16203,1,15,,,,0,4,4,4,4,4,100,,,,,,,,,,,,,,,,,,,,,,
1629975492,10,0,4274.871582,4271.794922,4175.897461,4121.025879,4227.179688,450,1,15,,,,0,4,4,4,4,4,100,,,,,,,,5,0,0.189991,-0.233643,0.690918,0.657227,0.59913,-0.827649,0.025879,-52.040726,-60.13863,46.646236,,,
1629975492,11,0,4305.641113,4276.922852,4174.871582,4127.692383,4214.358887,16209,1,15,,,,0,4,4,4,4,4,100,,,,,,,,,,,,,,,,,,,,1,0,0
1629975492,12,0,4323.077148,4270.769043,4182.563965,4130.256348,4183.589844,450,1,15,,,,0,4,4,4,4,4,100,,,,,,,,6,0,0.190291,-0.233398,0.690918,0.657227,0.600595,-0.823255,0.023438,-50.904099,-60.106304,46.707027,,,
1629975492,13,0,4325.641113,4272.820313,4178.974121,4121.538574,4207.692383,450,1,15,,,,0,4,4,4,4,4,100,,,,,,,,,,,,,,,,,,,,,,
1629975492,14,0,4280,4278.461426,4181.538574,4123.589844,4208.205078,450,1,15,,,,0,4,4,4,4,4,100,,,,,,,,7,0,0.190291,-0.233398,0.690918,0.657227,0.614267,-0.806653,0.021973,-53.170979,-60.137024,46.821552,,,
1629975492,15,0,4282.05127,4272.307617,4194.871582,4129.230957,4200.512695,16209,1,15,,,,0,4,4,4,4,4,100,,,,,,,,,,,,,,,,,,,,,,
1629975492,16,0,4352.820313,4259.487305,4178.461426,4108.717773,4242.05127,0,1,15,,,,0,4,4,4,4,4,100,,,,,,,,8,0,0.190291,-0.233398,0.690918,0.657227,0.604013,-0.813489,0.024414,-51.921326,-60.164673,46.804996,,,
1629975492,17,0,4328.205078,4249.230957,4170.256348,4089.743652,4232.820313,0,1,15,,,,0,4,4,4,4,4,100,,,,,,,,,,,,,,,,,,,,,,
1629975492,18,0,4229.743652,4247.692383,4171.794922,4095.384521,4157.436035,0,1,15,,,,0,4,4,4,4,4,100,,,,,,,,9,0,0.189403,-0.233398,0.691162,0.657227,0.610849,-0.821302,0.023438,-50.67701,-60.18956,46.730282,,,
1629975492,19,0,4216.410156,4248.205078,4163.589844,4091.794922,4136.922852,0,1,15,,,,0,4,4,4,4,4,100,,,,,,,,,,,,,,,,,,,,,,
1629975492,20,0,4243.589844,4246.153809,4158.461426,4070.769287,4156.410156,0,1,15,,,,0,4,4,4,4,4,100,,,,,,,,10,0,0.189403,-0.233398,0.691162,0.657227,0.596689,-0.817884,0.022461,-52.966599,-60.211956,46.722851,,,
1629975492,21,0,4222.563965,4244.102539,4148.717773,4066.666748,4131.282227,0,1,15,,,,0,4,4,4,4,4,100,,,,,,,,,,,,,,,,,,,,,,
1629975492,22,0,4203.077148,4249.230957,4154.871582,4081.025635,4117.94873,0,1,15,,,,0,4,4,4,4,4,100,,,,,,,,11,0,0.188855,-0.233154,0.691162,0.657471,0.602548,-0.828626,0.021973,-55.027229,-60.411556,46.656349,,,
1629975492,23,0,4231.794922,4252.820313,4162.563965,4088.718018,4130.256348,0,1,15,,,,0,4,4,4,4,4,100,,,,,,,,,,,,,,,,,,,,,,
1629975492,24,0,4295.384766,4247.179688,4155.897461,4081.025635,4169.743652,0,1,15,,,,0,4,4,4,4,4,100,,,,,,,,12,0,0.188262,-0.23291,0.691406,0.657471,0.592782,-0.835462,0.03125,-56.941608,-60.471569,46.596497,,,
1629975492,25,0,4275.897461,4245.641113,4157.436035,4078.461426,4210.256348,0,1,15,,,,0,4,4,4,4,4,100,,,,,,,,,,,,,,,,,,,,,,
1629975492,26,0,4206.153809,4248.205078,4156.922852,4089.230713,4183.589844,0,1,15,,,,0,4,4,4,4,4,100,,,,,,,,13,0,0.188262,-0.23291,0.691406,0.657471,0.601572,-0.822766,0.019532,-58.724369,-60.465763,46.662262,,,
1629975492,27,0,4263.077148,4249.743652,4164.615234,4096.410156,4168.205078,0,1,15,,,,0,4,4,4,4,4,100,,,,,,,,,,,,,,,,,,,,1,0,0
1629975492,28,0,4342.05127,4252.820313,4170.769043,4093.846191,4217.436035,0,1,15,,,,0,4,4,4,4,4,100,,,,,,,,14,0,0.188864,-0.232422,0.691406,0.657471,0.595712,-0.82472,0.021485,-60.209225,-60.460541,46.542004,,,
1629975492,29,0,4251.282227,4254.358887,4164.102539,4088.718018,4201.025879,0,1,15,,,,0,4,4,4,4,4,100,,,,,,,,,,,,,,,,,,,,,,
1629975492,30,0,4175.384766,4252.307617,4168.205078,4088.718018,4130.769043,0,1,15,,,,0,4,4,4,4,4,100,,,,,,,,15,0,0.187968,-0.232422,0.69165,0.657471,0.592782,-0.830579,0.031739,-61.425961,-60.396023,46.553402,,,
1629975492,31,0,4307.692383,4249.230957,4161.025879,4088.718018,4185.128418,0,1,15,,,,0,4,4,4,4,4,100,,,,,,,,,,,,,,,,,,,,,,
1629975492,32,0,4360,4251.282227,4160,4088.205078,4275.897461,0,1,15,,,,0,4,4,4,4,4,100,,,,,,,,16,0,0.18827,-0.232178,0.69165,0.657471,0.598642,-0.831556,0.027344,-59.231178,-60.278141,46.56366,,,
1629975492,33,0,4206.153809,4255.384766,4168.717773,4091.794922,4216.410156,0,1,15,,,,0,4,4,4,4,4,100,,,,,,,,,,,,,,,,,,,,,,
1629975492,34,0,4208.205078,4255.384766,4156.410156,4089.743652,4106.666504,0,1,15,,,,0,4,4,4,4,4,100,,,,,,,,17,0,0.187673,-0.231934,0.691895,0.657471,0.60499,-0.831067,0.025391,-60.545719,-60.351494,46.632706,,,
1629975492,35,0,4353.846191,4254.358887,4158.461426,4084.102539,4109.743652,0,1,15,,,,0,4,4,4,4,4,100,,,,,,,,,,,,,,,,,,,,,,
1629975492,36,0,4315.897461,4250.769043,4162.563965,4088.718018,4210.769043,0,1,15,,,,0,4,4,4,4,4,100,,,,,,,,18,0,0.187974,-0.231689,0.691895,0.657471,0.585458,-0.840345,0.027344,-61.788624,-60.417511,46.635036,,,
1629975492,37,0,4239.487305,4251.794922,4160.512695,4095.384521,4294.871582,0,1,15,,,,0,4,4,4,4,4,100,,,,,,,,,,,,,,,,,,,,,,
1629975492,38,0,4299.487305,4265.128418,4170.769043,4093.333252,4242.05127,0,1,15,,,,0,4,4,4,4,4,100,,,,,,,,19,0,0.188275,-0.231445,0.691895,0.657471,0.596689,-0.827649,0.020996,-62.967049,-60.357296,46.517498,,,
1629975492,39,0,4287.179688,4272.820313,4177.436035,4094.358887,4110.256348,0,1,15,,,,0,4,4,4,4,4,100,,,,,,,,,,,,,,,,,,,,,,
1629975492,40,0,4247.692383,4267.179688,4179.487305,4103.589844,4132.820313,0,1,15,,,,0,4,4,4,4,4,100,,,,,,,,20,0,0.186516,-0.231445,0.692139,0.657715,0.588388,-0.827649,0.026856,-64.087448,-60.362919,46.411716,,,
1629975492,41,0,4309.230957,4264.615234,4164.102539,4100,4236.922852,0,1,15,,,,0,4,4,4,4,4,100,,,,,,,,,,,,,,,,,,,,,,
1629975492,42,0,4321.538574,4262.05127,4156.410156,4091.794922,4229.230957,0,1,15,,,,0,4,4,4,4,4,100,,,,,,,,21,0,0.186819,-0.231201,0.692139,0.657715,0.594247,-0.820325,0.029297,-64.976181,-60.308163,46.436146,,,
1629975492,43,0,4263.077148,4254.358887,4171.794922,4094.871826,4186.666504,0,1,15,,,,0,4,4,4,4,4,100,1,33.333332,0,4,4,4,0,,,,,,,,,,,,,1,0,0
1629975492,44,0,4224.615234,4250.256348,4166.666504,4095.384521,4192.820313,0,1,15,,,,0,4,4,4,4,4,100,,,,,,,,22,0,0.186819,-0.231201,0.692139,0.657715,0.595224,-0.830579,0.009766,-65.776039,-60.378517,46.45813,,,
1629975492,45,0,4285.128418,4248.717773,4159.487305,4087.179443,4216.410156,0,1,15,,,,0,4,4,4,4,4,100,,,,,,,,,,,,,,,,,,,,,,
1629975492,46,0,4366.153809,4243.077148,4160,4088.718018,4221.025879,0,1,15,,,,0,4,4,4,4,4,100,,,,,,,,23,0,0.186819,-0.231201,0.692139,0.657715,0.591318,-0.828626,0.026856,-66.495911,-60.501648,46.597546,,,
1629975492,47,0,4308.205078,4239.487305,4158.974121,4102.05127,4222.563965,0,1,15,,,,0,4,4,4,4,4,100,,,,,,,,,,,,,,,,,,,,,,
1629975492,48,0,4227.179688,4254.871582,4179.487305,4110.256348,4201.025879,0,1,15,,,,0,4,4,4,4,4,100,,,,,,,,24,0,0.187121,-0.230957,0.692139,0.657715,0.595712,-0.827161,0.022461,-67.143791,-60.433018,46.60339,,,
1629975492,49,0,4273.846191,4272.820313,4191.794922,4106.666504,4178.461426,0,1,15,,,,0,4,4,4,4,4,100,,,,,,,,,,,,,,,,,,,,,,
1629975492,50,0,4335.897461,4270.256348,4189.743652,4103.589844,4219.487305,0,1,15,,,,0,4,4,4,4,4,100,,,,,,,,25,0,0.187121,-0.230957,0.692139,0.657715,0.603037,-0.831067,0.031739,-64.437042,-60.371254,46.489017,,,
1629975492,51,0,4316.922852,4260.512695,4184.615234,4112.307617,4288.717773,0,1,15,,,,0,4,4,4,4,4,100,,,,,,,,,,,,,,,,,,,,,,
1629975492,52,0,4299.487305,4259.487305,4180,4123.589844,4275.897461,0,1,15,,,,0,4,4,4,4,4,100,,,,,,,,26,0,0.18626,-0.230957,0.692139,0.657959,0.595224,-0.814466,0.028809,-62.060783,-60.375481,46.565529,,,
1629975492,53,0,4317.436035,4260,4188.717773,4123.589844,4208.717773,0,1,15,,,,0,4,4,4,4,4,100,,,,,,,,,,,,,,,,,,,,,,
1629975492,54,0,4341.538574,4257.94873,4185.128418,4117.94873,4229.743652,0,1,15,,,,0,4,4,4,4,4,100,,,,,,,,27,0,0.18626,-0.230957,0.692139,0.657959,0.591806,-0.830091,0.023926,-59.742702,-60.319469,46.574574,,,
1629975492,55,0,4323.077148,4261.538574,4187.179688,4123.589844,4254.358887,0,1,15,,,,0,4,4,4,4,4,100,,,,,,,,,,,,,,,,,,,,,,
1629975492,56,0,4255.897461,4267.179688,4197.436035,4133.846191,4220,0,1,15,,,,0,4,4,4,4,4,100,,,,,,,,28,0,0.186607,-0.230713,0.691895,0.658203,0.601083,-0.828626,0.006836,-57.656433,-60.269058,46.582718,,,
1629975492,57,0,4268.717773,4269.230957,4184.615234,4123.589844,4233.333496,0,1,15,,,,0,4,4,4,4,4,100,,,,,,,,,,,,,,,,,,,,,,
1629975492,58,0,4326.153809,4265.641113,4181.538574,4107.179688,4267.179688,0,1,15,,,,0,4,4,4,4,4,100,,,,,,,,29,0,0.185699,-0.230713,0.692139,0.658203,0.585946,-0.826673,0.02002,-59.248077,-60.343319,46.530228,,,
1629975492,59,0,4297.94873,4251.794922,4181.538574,4109.743652,4241.538574,0,1,15,,,,0,4,4,4,4,4,100,,,,,,,,,,,,,,,,,,,,1,0,0
1629975493,60,0,4270.256348,4248.717773,4185.128418,4120.512695,4220,0,1,15,,,,0,4,4,4,4,4,100,,,,,,,,30,0,0.18626,-0.230957,0.692139,0.657959,0.591806,-0.830091,0.023926,-60.560928,-60.469971,46.542805,,,
1629975493,61,0,4314.358887,4255.384766,4188.205078,4117.94873,4244.102539,0,1,15,,,,0,4,4,4,4,4,100,,,,,,,,,,,,,,,,,,,,,,
1629975493,62,0,4297.94873,4247.692383,4168.205078,4107.179688,4235.384766,0,1,15,,,,0,4,4,4,4,4,100,,,,,,,,31,0,0.185699,-0.230713,0.692139,0.658203,0.585946,-0.826673,0.02002,-61.862125,-60.524139,46.494305,,,
1629975493,63,0,4263.077148,4243.589844,4176.922852,4118.974121,4224.615234,0,1,15,,,,0,4,4,4,4,4,100,,,,,,,,,,,,,,,,,,,,,,
1629975493,64,0,4311.282227,4254.358887,4193.333496,4135.897461,4241.538574,450,1,15,,,,0,4,4,4,4,4,100,,,,,,,,32,0,0.185699,-0.230713,0.692139,0.658203,0.607431,-0.829602,0.023438,-59.743359,-60.513077,46.630104,,,
1629975493,65,0,4317.436035,4254.358887,4185.641113,4126.153809,4240.512695,450,1,15,,,,0,4,4,4,4,4,100,,,,,,,,,,,,,,,,,,,,,,
1629975493,66,0,4298.461426,4249.743652,4185.641113,4110.769043,4239.487305,16232,1,15,,,,0,4,4,4,4,4,100,,,,,,,,33,0,0.186607,-0.230713,0.691895,0.658203,0.600107,-0.842786,0.029786,-61.126312,-60.622753,46.632694,,,
1629975493,67,0,4309.743652,4253.846191,4178.974121,4107.179688,4230.769043,450,1,15,,,,0,4,4,4,4,4,100,,,,,,,,,,,,,,,,,,,,,,
1629975493,68,0,4279.487305,4253.846191,4173.846191,4111.282227,4205.128418,16234,1,15,,,,0,4,4,4,4,4,100,,,,,,,,34,0,0.185744,-0.230713,0.691895,0.658447,0.586435,-0.839368,0.025879,-59.320389,-60.60183,46.635021,,,
1629975493,69,0,4285.128418,4255.384766,4186.666504,4126.666504,4230.769043,450,1,15,,,,0,4,4,4,4,4,100,,,,,,,,,,,,,,,,,,,,,,
1629975493,70,0,4356.410156,4263.589844,4203.077148,4133.333496,4284.102539,16195,1,15,,,,0,4,4,4,4,4,100,,,,,,,,35,0,0.185744,-0.230713,0.691895,0.658447,0.597177,-0.839857,0.020996,-60.74564,-60.642815,46.696934,,,
1629975493,71,0,4362.563965,4261.025879,4203.077148,4122.05127,4276.922852,450,1,15,,,,0,4,4,4,4,4,100,,,,,,,,,,,,,,,,,,,,,,
1629975493,72,0,4279.487305,4254.871582,4186.666504,4123.077148,4221.025879,450,1,15,,,,0,4,4,4,4,4,100,,,,,,,,36,0,0.18544,-0.230957,0.691895,0.658447,0.587411,-0.823255,0.022461,-62.088181,-60.679699,46.692841,,,
1629975493,73,0,4228.205078,4255.897461,4190.769043,4132.307617,4214.358887,16206,1,15,,,,0,4,4,4,4,4,100,,,,,,,,,,,,,,,,,,,,,,
1629975493,74,0,4307.179688,4256.410156,4194.358887,4126.666504,4296.922852,450,1,15,,,,0,4,4,4,4,4,100,,,,,,,,37,0,0.186349,-0.230957,0.69165,0.658447,0.598154,-0.831556,0.018067,-59.886993,-60.772713,46.689156,,,
1629975493,75,0,4417.94873,4253.333496,4181.025879,4119.487305,4336.410156,16196,1,15,,,,0,4,4,4,4,4,100,,,,,,,,,,,,,,,,,,,,1,0,0
1629975493,76,0,4345.128418,4256.410156,4185.128418,4116.410156,4248.717773,450,1,15,,,,0,4,4,4,4,4,100,,,,,,,,38,0,0.186349,-0.230957,0.69165,0.658447,0.59913,-0.828138,0.03125,-57.786293,-60.796608,46.745651,,,
1629975493,77,0,4226.153809,4261.538574,4183.077148,4109.743652,4172.307617,450,1,15,,,,0,4,4,4,4,4,100,,,,,,,,,,,,,,,,,,,,,,
1629975493,78,0,4257.94873,4259.487305,4178.974121,4115.897461,4188.205078,450,1,15,,,,0,4,4,4,4,4,100,,,,,,,,39,0,0.186349,-0.230957,0.69165,0.658447,0.586923,-0.839368,0.030762,-55.955475,-60.818115,46.617054,,,
1629975493,79,0,4303.077148,4256.410156,4185.128418,4125.641113,4249.230957,16196,1,15,,,,0,4,4,4,4,4,100,,,,,,,,,,,,,,,,,,,,,,
1629975493,80,0,4320,4253.333496,4175.384766,4112.820313,4305.128418,450,1,15,,,,0,4,4,4,4,4,100,,,,,,,,40,0,0.186349,-0.230957,0.69165,0.658447,0.598642,-0.849622,0.026856,-57.71722,-60.837471,46.561134,,,
1629975493,81,0,4346.666504,4255.384766,4181.025879,4108.205078,4284.102539,450,1,15,,,,0,4,4,4,4,4,100,,,,,,,,,,,,,,,,,,,,,,
1629975493,82,0,4292.307617,4264.102539,4190.769043,4122.563965,4211.794922,450,1,15,,,,0,4,4,4,4,4,100,,,,,,,,41,0,0.186046,-0.231201,0.69165,0.658447,0.583017,-0.837903,0.026368,-59.302788,-60.974522,46.570618,,,
1629975493,83,0,4225.641113,4264.102539,4188.205078,4121.538574,4185.128418,16196,1,15,,,,0,4,4,4,4,4,100,,,,,,,,,,,,,,,,,,,,,,
1629975493,84,0,4315.384766,4252.820313,4189.743652,4113.846191,4236.410156,450,1,15,,,,0,4,4,4,4,4,100,,,,,,,,42,0,0.186046,-0.231201,0.69165,0.658447,0.5879,-0.847181,0.03711,-57.320324,-60.978237,46.459522,,,
1629975493,85,0,4374.871582,4248.717773,4185.128418,4115.384766,4309.230957,450,1,15,,,,0,4,4,4,4,4,100,,,,,,,,,,,,,,,,,,,,,,
1629975493,86,0,4249.230957,4259.487305,4192.820313,4124.102539,4254.358887,450,1,15,,,,0,4,4,4,4,4,100,,,,,,,,43,0,0.186046,-0.231201,0.69165,0.658447,0.596201,-0.84181,0.011719,-59.005394,-60.981579,46.479172,,,
1629975493,87,0,4222.05127,4268.205078,4196.410156,4135.384766,4165.128418,16196,1,15,,,,0,4,4,4,4,4,100,,,,,,,,,,,,,,,,,,,,,,
1629975493,88,0,4369.230957,4262.563965,4188.205078,4131.794922,4264.102539,450,1,15,,,,0,4,4,4,4,4,100,,,,,,,,44,0,0.185742,-0.231445,0.69165,0.658447,0.587411,-0.831556,0.019532,-60.462147,-60.924774,46.496853,,,
1629975493,89,0,4381.538574,4256.922852,4189.230957,4117.94873,4361.538574,450,1,15,,,,0,4,4,4,4,4,100,,,,,,,,,,,,,,,,,,,,,,
1629975493,90,0,4281.025879,4260,4181.538574,4117.94873,4270.769043,450,1,15,,,,0,4,4,4,4,4,100,,,,,,,,45,0,0.186302,-0.231689,0.69165,0.658203,0.593271,-0.847669,0.028809,-61.77322,-60.933464,46.572578,,,
1629975493,91,0,4295.897461,4261.538574,4174.871582,4122.563965,4205.128418,16196,1,15,,,,0,4,4,4,4,4,100,,,,,,,,,,,,,,,,,,,,1,0,0
1629975493,92,0,4288.717773,4263.589844,4176.922852,4117.94873,4226.666504,450,1,15,,,,0,4,4,4,4,4,100,,,,,,,,46,0,0.187206,-0.231689,0.691406,0.658203,0.585458,-0.842298,0.023438,-59.483898,-60.88147,46.640736,,,
1629975493,93,0,4222.563965,4262.563965,4177.436035,4114.871582,4233.333496,450,1,15,,,,0,4,4,4,4,4,100,,,,,,,,,,,,,,,,,,,,,,
1629975493,94,0,4294.358887,4258.461426,4176.410156,4115.384766,4270.769043,450,1,15,,,,0,4,4,4,4,4,100,,,,,,,,47,0,0.186345,-0.231689,0.691406,0.658447,0.596201,-0.850599,0.021973,-57.602955,-60.834675,46.582447,,,
1629975493,95,0,4382.05127,4260,4168.205078,4109.743652,4290.769043,16196,1,15,,,,0,4,4,4,4,4,100,,,,,,,,,,,,,,,,,,,,,,
1629975493,96,0,4300,4263.077148,4179.487305,4109.230957,4215.897461,450,1,15,,,,0,4,4,4,4,4,100,,,,,,,,48,0,0.186903,-0.231934,0.691406,0.658203,0.598642,-0.843275,0.016602,-55.850288,-60.792561,46.589798,,,
1629975493,97,0,4179.487305,4257.94873,4185.641113,4114.871582,4161.538574,450,1,15,,,,0,4,4,4,4,4,100,,,,,,,,,,,,,,,,,,,,,,
1629975493,98,0,4171.282227,4246.666504,4166.153809,4109.230957,4185.128418,450,1,15,,,,0,4,4,4,4,4,100,,,,,,,,49,0,0.186903,-0.231934,0.691406,0.658203,0.584482,-0.848157,0.023438,-57.682365,-60.754654,46.476788,,,
1629975493,99,0,4245.641113,4245.128418,4166.666504,4104.102539,4197.436035,16196,1,15,,,,0,4,4,4,4,4,100,,,,,,,,,,,,,,,,,,,,,,
1629975493,100,0,4321.025879,4254.358887,4166.666504,4114.358887,4213.333496,450,1,15,,,,0,4,4,4,4,4,100,,,,,,,,50,0,0.187459,-0.232178,0.691406,0.657959,0.590829,-0.848646,0.018555,-59.391048,-60.840172,46.494709,,,
1629975493,101,0,4317.436035,4258.461426,4170.256348,4125.128418,4261.538574,450,1,15,,,,0,4,4,4,4,4,100,,,,,,,,,,,,,,,,,,,,,,
1629975493,102,0,4250.256348,4253.846191,4182.05127,4124.615234,4238.974121,450,1,15,,,,0,4,4,4,4,4,100,,,,,,,,51,0,0.187156,-0.232422,0.691406,0.657959,0.573251,-0.856458,0.023926,-60.749416,-60.73769,46.510834,,,
1629975493,103,0,4253.846191,4253.333496,4173.333496,4115.384766,4189.743652,16196,1,15,,,,0,4,4,4,4,4,100,,,,,,,,,,,,,,,,,,,,,,
1629975493,104,0,4308.717773,4258.461426,4172.820313,4114.871582,4248.205078,450,1,15,,,,0,4,4,4,4,4,100,,,,,,,,52,0,0.18771,-0.232666,0.691406,0.657715,0.583505,-0.854017,0.029786,-61.971951,-60.765091,46.644981,,,
1629975493,105,0,4305.641113,4255.897461,4169.743652,4121.025879,4322.05127,450,1,15,,,,0,4,4,4,4,4,100,,,,,,,,,,,,,,,,,,,,,,
1629975493,106,0,4263.589844,4249.230957,4158.974121,4117.94873,4257.94873,450,1,15,,,,0,4,4,4,4,4,100,,,,,,,,53,0,0.188262,-0.23291,0.691406,0.657471,0.598642,-0.862318,0.025391,-63.072231,-60.849564,46.586266,,,
1629975493,107,0,4236.410156,4244.102539,4164.615234,4115.384766,4189.230957,16196,1,15,,,,0,4,4,4,4,4,100,1,41.666668,1,4,4,4,0,,,,,,,,,,,,,1,0,0
1629975493,108,0,4220.512695,4239.487305,4167.179688,4123.077148,4162.05127,450,1,15,,,,0,4,4,4,4,4,100,,,,,,,,54,0,0.188509,-0.233398,0.691406,0.657227,0.588876,-0.851087,0.032715,-64.241928,-60.746143,46.413792,,,
1629975493,109,0,4231.794922,4246.153809,4166.153809,4130.769043,4142.05127,450,1,15,,,,0,4,4,4,4,4,100,,,,,,,,,,,,,,,,,,,,,,
1629975493,110,0,4295.897461,4256.922852,4162.05127,4131.282227,4246.666504,450,1,15,,,,0,4,4,4,4,4,100,,,,,,,,55,0,0.189057,-0.233643,0.691406,0.656982,0.58204,-0.85304,0.016114,-65.175026,-60.653065,46.438011,,,
1629975493,111,0,4266.153809,4258.974121,4174.358887,4125.641113,4280,16196,1,15,,,,0,4,4,4,4,4,100,,,,,,,,,,,,,,,,,,,,,,
1629975493,112,0,4151.794922,4263.077148,4201.025879,4129.230957,4141.538574,450,1,15,,,,0,4,4,4,4,4,100,,,,,,,,56,0,0.189301,-0.234131,0.691406,0.656738,0.594736,-0.854994,0.015137,-66.074631,-60.688927,46.519623,,,
1629975493,113,0,4241.538574,4264.102539,4188.205078,4140,4191.794922,450,1,15,,,,0,4,4,4,4,4,100,,,,,,,,,,,,,,,,,,,,,,
1629975493,114,0,4415.897461,4256.410156,4183.077148,4146.153809,4367.692383,450,1,15,,,,0,4,4,4,4,4,100,,,,,,,,57,0,0.190687,-0.234375,0.691406,0.65625,0.60206,-0.857435,0.020996,-66.704826,-60.60157,46.53326,,,
1629975493,115,0,4362.563965,4257.436035,4200.512695,4147.179688,4316.410156,16196,1,15,,,,0,4,4,4,4,4,100,,,,,,,,,,,,,,,,,,,,,,
1629975493,116,0,4231.794922,4257.436035,4189.743652,4147.692383,4205.128418,450,1,15,,,,0,4,4,4,4,4,100,,,,,,,,58,0,0.191226,-0.234619,0.691406,0.656006,0.594736,-0.871595,0.026856,-67.391632,-60.522949,46.545532,,,
1629975493,117,0,4211.282227,4246.153809,4180.512695,4148.717773,4204.102539,450,1,15,,,,0,4,4,4,4,4,100,,,,,,,,,,,,,,,,,,,,,,
1629975493,118,0,4216.410156,4237.94873,4170.769043,4142.563965,4209.230957,450,1,15,,,,0,4,4,4,4,4,100,,,,,,,,59,0,0.192596,-0.234863,0.691406,0.655518,0.588388,-0.868666,0.015625,-68.009758,-60.512009,46.496761,,,
1629975493,119,0,4249.230957,4240,4162.563965,4138.974121,4255.897461,16196,1,15,,,,0,4,4,4,4,4,100,,,,,,,,,,,,,,,,,,,,,,
1629975493,120,0,4305.641113,4248.205078,4173.333496,4150.769043,4272.820313,450,1,15,,,,0,4,4,4,4,4,100,,,,,,,,60,0,0.192551,-0.234863,0.69165,0.655273,0.586435,-0.869154,0.02295,-68.625885,-60.442345,46.632317,,,
1629975493,121,0,4284.615234,4247.692383,4181.538574,4155.384766,4204.615234,450,1,15,,,,0,4,4,4,4,4,100,,,,,,,,,,,,,,,,,,,,,,
1629975493,122,0,4230.769043,4236.410156,4178.974121,4140.512695,4208.205078,450,1,15,,,,0,4,4,4,4,4,100,,,,,,,,61,0,0.193909,-0.235107,0.69165,0.654785,0.587411,-0.87599,0.024414,-68.941147,-60.379646,46.574867,,,
1629975493,123,0,4217.94873,4234.358887,4164.102539,4128.717773,4267.692383,16196,1,15,,,,0,4,4,4,4,4,100,,,,,,,,,,,,,,,,,,,,1,0,0
1629975493,124,0,4262.563965,4240.512695,4170.769043,4135.384766,4276.922852,450,1,15,,,,0,4,4,4,4,4,100,,,,,,,,62,0,0.195256,-0.235352,0.69165,0.654297,0.597665,-0.892592,0.02002,-69.40432,-60.383034,46.582977,,,
1629975493,125,0,4300,4236.922852,4192.307617,4149.230957,4232.820313,450,1,15,,,,0,4,4,4,4,4,100,,,,,,,,,,,,,,,,,,,,,,
1629975493,126,0,4221.538574,4229.230957,4180.512695,4142.05127,4175.897461,450,1,15,,,,0,4,4,4,4,4,100,,,,,,,,63,0,0.197403,-0.235596,0.69165,0.653564,0.597177,-0.903334,0.032715,-69.76136,-60.326267,46.590279,,,
1629975493,127,0,4174.871582,4225.641113,4169.743652,4119.487305,4180,232,1,15,,,,0,4,4,4,4,4,100,,,,,,,,,,,,,,,,,,,,,,
1629975493,0,0,4260,4223.589844,4168.717773,4117.436035,4223.589844,450,1,15,,,,0,4,4,4,4,4,100,,,,,,,,0,0,0.193909,-0.235107,0.69165,0.654785,0.587411,-0.87599,0.024414,-70.142517,-60.215359,46.656666,,,
1629975493,1,0,4281.025879,4228.717773,4174.871582,4135.384766,4235.897461,450,1,15,,,,0,4,4,4,4,4,100,,,,,,,,,,,,,,,,,,,,,,
1629975493,2,0,4225.128418,4245.128418,4193.846191,4148.717773,4247.179688,16216,1,15,,,,0,4,4,4,4,4,100,,,,,,,,1,0,0.197403,-0.235596,0.69165,0.653564,0.597177,-0.903334,0.032715,-70.425735,-60.175362,46.656597,,,
1629975493,3,0,4225.128418,4245.128418,4186.153809,4142.05127,4231.282227,450,1,15,,,,0,4,4,4,4,4,100,,,,,,,,,,,,,,,,,,,,,,
1629975493,4,0,4237.436035,4230.256348,4178.974121,4129.230957,4202.563965,16222,1,15,,,,0,4,4,4,4,4,100,,,,,,,,2,0,0.198433,-0.236084,0.69165,0.653076,0.591318,-0.892103,0.028809,-70.910049,-60.166779,46.716297,,,
1629975493,5,0,4221.538574,4231.794922,4179.487305,4130.769043,4223.589844,450,1,15,,,,0,4,4,4,4,4,100,,,,,,,,,,,,,,,,,,,,,,
1629975493,6,0,4238.974121,4233.333496,4169.743652,4134.358887,4243.077148,16204,1,15,,,,0,4,4,4,4,4,100,,,,,,,,3,0,0.200806,-0.236816,0.691406,0.652344,0.585458,-0.902846,0.033204,-71.295967,-60.131638,46.530819,,,
1629975493,7,0,4235.384766,4223.077148,4172.307617,4132.820313,4226.666504,450,1,15,,,,0,4,4,4,4,4,100,,,,,,,,,,,,,,,,,,,,,,
1629975493,8,0,4151.282227,4212.307617,4167.179688,4127.179688,4173.333496,450,1,15,,,,0,4,4,4,4,4,100,,,,,,,,4,0,0.202313,-0.237549,0.691406,0.651611,0.590829,-0.905287,0.036133,-71.523659,-59.980377,46.543335,,,
1629975493,9,0,4132.307617,4211.794922,4155.384766,4125.128418,4154.358887,16191,1,15,,,,0,4,4,4,4,4,100,,,,,,,,,,,,,,,,,,,,,,
1629975493,10,0,4260,4225.641113,4151.794922,4127.179688,4258.461426,450,1,15,,,,0,4,4,4,4,4,100,,,,,,,,5,0,0.20517,-0.238525,0.690918,0.650879,0.600595,-0.903822,0.027344,-71.788399,-59.90406,46.614418,,,
1629975493,11,0,4373.333496,4234.358887,4149.743652,4120,4336.922852,16208,1,15,,,,0,4,4,4,4,4,100,,,,,,,,,,,,,,,,,,,,1,0,0
1629975493,12,0,4431.794922,4242.563965,4173.333496,4128.205078,4352.820313,450,1,15,,,,0,4,4,4,4,4,100,,,,,,,,6,0,0.208741,-0.239502,0.69043,0.649902,0.590341,-0.897963,0.035645,-71.907036,-59.955009,46.618572,,,
1629975493,13,0,4558.461426,4258.461426,4191.794922,4151.282227,4474.871582,450,1,15,,,,0,4,4,4,4,4,100,,,,,,,,,,,,,,,,,,,,,,
1629975493,14,0,4667.179688,4260.512695,4195.384766,4146.153809,4577.94873,450,1,15,,,,0,4,4,4,4,4,100,,,,,,,,7,0,0.210695,-0.240479,0.690186,0.64917,0.603037,-0.876967,0.035645,-72.073624,-59.941044,46.5625,,,
1629975493,15,0,4661.538574,4253.846191,4205.128418,4138.974121,4545.641113,16208,1,15,,,,0,4,4,4,4,4,100,,,,,,,,,,,,,,,,,,,,,,
1629975493,16,0,4613.846191,4251.282227,4202.563965,4152.820313,4514.871582,0,1,15,,,,0,4,4,4,4,4,100,,,,,,,,8,0,0.214477,-0.241211,0.689453,0.648438,0.604501,-0.86183,0.027344,-72.163734,-59.86866,46.452217,,,
1629975493,17,0,4557.436035,4245.641113,4200,4151.794922,4457.94873,0,1,15,,,,0,4,4,4,4,4,100,,,,,,,,,,,,,,,,,,,,,,
1629975493,18,0,4505.128418,4243.077148,4197.94873,4146.153809,4376.410156,0,1,15,,,,0,4,4,4,4,4,100,,,,,,,,9,0,0.216911,-0.241699,0.689209,0.647705,0.612314,-0.859388,0.032715,-72.364464,-59.683884,46.472595,,,
1629975493,19,0,4475.897461,4244.102539,4196.922852,4153.846191,4385.641113,0,1,15,,,,0,4,4,4,4,4,100,,,,,,,,,,,,,,,,,,,,,,
1629975493,20,0,4446.153809,4244.615234,4200,4150.256348,4401.025879,0,1,15,,,,0,4,4,4,4,4,100,,,,,,,,10,0,0.22008,-0.242188,0.688721,0.646973,0.609384,-0.854505,0.01709,-72.604942,-59.577404,46.431118,,,
1629975493,21,0,4417.436035,4242.563965,4184.615234,4133.333496,4356.410156,0,1,15,,,,0,4,4,4,4,4,100,,,,,,,,,,,,,,,,,,,,,,
1629975493,22,0,4404.615234,4241.538574,4179.487305,4133.846191,4322.05127,0,1,15,,,,0,4,4,4,4,4,100,,,,,,,,11,0,0.223154,-0.242676,0.688477,0.645996,0.615244,-0.842786,0.007324,-72.701736,-59.421753,46.274158,,,
1629975493,23,0,4392.820313,4241.025879,4184.102539,4139.487305,4316.922852,0,1,15,,,,0,4,4,4,4,4,100,,,,,,,,,,,,,,,,,,,,,,
1629975493,24,0,4375.897461,4234.871582,4174.871582,4129.230957,4315.897461,0,1,15,,,,0,4,4,4,4,4,100,,,,,,,,12,0,0.226488,-0.24292,0.687988,0.645264,0.627939,-0.845228,0.024414,-72.729034,-59.341484,46.192711,,,
1629975493,25,0,4376.922852,4231.794922,4178.974121,4132.820313,4327.692383,0,1,15,,,,0,4,4,4,4,4,100,,,,,,,,,,,,,,,,,,,,,,
1629975493,26,0,4393.333496,4234.358887,4186.666504,4149.743652,4356.922852,0,1,15,,,,0,4,4,4,4,4,100,,,,,,,,13,0,0.228519,-0.243652,0.687744,0.644531,0.624033,-0.82472,0.026368,-69.46376,-59.149609,46.179222,,,
1629975493,27,0,4400.512695,4234.358887,4181.025879,4146.153809,4369.230957,0,1,15,,,,0,4,4,4,4,4,100,,,,,,,,,,,,,,,,,,,,1,0,0
1629975493,28,0,4362.05127,4229.230957,4165.641113,4129.743652,4333.333496,0,1,15,,,,0,4,4,4,4,4,100,,,,,,,,14,0,0.231721,-0.244629,0.687012,0.643799,0.612802,-0.816907,0.037598,-70.113937,-58.91711,45.927822,,,
1629975493,29,0,4290.769043,4222.05127,4167.179688,4123.589844,4272.820313,0,1,15,,,,0,4,4,4,4,4,100,,,,,,,,,,,,,,,,,,,,,,
1629975493,30,0,4300,4223.589844,4182.05127,4130.256348,4273.846191,0,1,15,,,,0,4,4,4,4,4,100,,,,,,,,15,0,0.235126,-0.245361,0.686279,0.643066,0.620615,-0.808606,0.039063,-66.99054,-58.767673,45.881008,,,
1629975493,31,0,4377.94873,4224.615234,4167.179688,4135.897461,4326.666504,0,1,15,,,,0,4,4,4,4,4,100,,,,,,,,,,,,,,,,,,,,,,
1629975493,32,0,4399.487305,4222.05127,4169.743652,4138.461426,4345.128418,0,1,15,,,,0,4,4,4,4,4,100,,,,,,,,16,0,0.237817,-0.246094,0.685547,0.642578,0.626963,-0.813977,0.033692,-64.179489,-58.633183,45.77906,,,
1629975493,33,0,4387.179688,4227.179688,4183.589844,4146.666504,4335.897461,0,1,15,,,,0,4,4,4,4,4,100,,,,,,,,,,,,,,,,,,,,,,
1629975493,34,0,4421.538574,4231.794922,4168.205078,4143.589844,4369.743652,0,1,15,,,,0,4,4,4,4,4,100,,,,,,,,17,0,0.241166,-0.246826,0.68457,0.64209,0.612802,-0.821302,0.023926,-61.769169,-58.452324,45.74712,,,
1629975493,35,0,4480,4233.333496,4178.461426,4138.461426,4424.102539,0,1,15,,,,0,4,4,4,4,4,100,,,,,,,,,,,,,,,,,,,,,,
1629975493,36,0,4481.538574,4234.358887,4186.153809,4144.102539,4388.717773,0,1,15,,,,0,4,4,4,4,4,100,,,,,,,,18,0,0.244462,-0.247559,0.683594,0.641602,0.621103,-0.825208,0.01416,-63.069172,-58.169918,45.718376,,,
1629975493,37,0,4448.717773,4229.230957,4175.384766,4143.077148,4374.358887,0,1,15,,,,0,4,4,4,4,4,100,,,,,,,,,,,,,,,,,,,,,,
1629975493,38,0,4526.666504,4232.820313,4190.769043,4147.692383,4544.615234,0,1,15,,,,0,4,4,4,4,4,100,,,,,,,,19,0,0.248521,-0.248779,0.682373,0.640869,0.637705,-0.833509,0.001953,-64.239174,-57.975571,45.513062,,,
1629975493,39,0,4648.205078,4241.025879,4192.820313,4158.461426,4678.461426,0,1,15,,,,0,4,4,4,4,4,100,,,,,,,,,,,,,,,,,,,,,,
1629975493,40,0,4623.077148,4240,4182.05127,4161.538574,4605.641113,0,1,15,,,,0,4,4,4,4,4,100,,,,,,,,20,0,0.252702,-0.249756,0.681396,0.639893,0.645029,-0.831067,-0.010254,-61.763073,-57.681026,45.328278,,,
1629975493,41,0,4597.436035,4243.077148,4187.179688,4165.128418,4574.871582,0,1,15,,,,0,4,4,4,4,4,100,,,,,,,,,,,,,,,,,,,,,,
1629975493,42,0,4631.794922,4243.077148,4194.871582,4161.538574,4625.128418,0,1,15,,,,0,4,4,4,4,4,100,,,,,,,,21,0,0.256974,-0.251221,0.680176,0.638916,0.650401,-0.822278,0.004395,-62.944054,-57.415939,45.341415,,,
1629975493,43,0,4598.974121,4241.538574,4192.820313,4155.897461,4588.717773,0,1,15,,,,0,4,4,4,4,4,100,1,50,1,4,4,4,1,,,,,,,,,,,,,1,0,0
1629975493,44,0,4622.05127,4246.666504,4175.384766,4155.384766,4589.230957,0,1,15,,,,0,4,4,4,4,4,100,,,,,,,,22,0,0.260646,-0.253174,0.679199,0.637695,0.652354,-0.79884,0.004883,-60.537647,-57.296989,45.293427,,,
1629975493,45,0,4713.333496,4247.179688,4189.743652,4161.025879,4664.615234,0,1,15,,,,0,4,4,4,4,4,100,,,,,,,,,,,,,,,,,,,,,,
1629975493,46,0,4675.384766,4243.077148,4201.538574,4161.538574,4630.256348,0,1,15,,,,0,4,4,4,4,4,100,,,,,,,,23,0,0.264087,-0.254639,0.678467,0.636475,0.674327,-0.76759,-0.004395,-58.371883,-56.950672,45.070789,,,
1629975493,47,0,4591.282227,4236.410156,4175.897461,4148.205078,4564.102539,0,1,15,,,,0,4,4,4,4,4,100,,,,,,,,,,,,,,,,,,,,,,
1629975493,48,0,4603.077148,4236.922852,4187.179688,4156.922852,4595.897461,0,1,15,,,,0,4,4,4,4,4,100,,,,,,,,24,0,0.26755,-0.255371,0.677979,0.635254,0.688975,-0.762219,-0.000488,-56.422691,-56.579174,45.049866,,,
1629975493,49,0,4567.692383,4240.512695,4198.461426,4179.487305,4562.05127,0,1,15,,,,0,4,4,4,4,4,100,,,,,,,,,,,,,,,,,,,,,,
1629975493,50,0,4466.153809,4236.410156,4185.128418,4174.871582,4449.230957,0,1,15,,,,0,4,4,4,4,4,100,,,,,,,,25,0,0.271042,-0.255371,0.677734,0.634033,0.684092,-0.741711,0.003906,-58.317158,-56.364456,44.9114,,,
1629975493,51,0,4426.153809,4228.205078,4180,4165.641113,4416.922852,0,1,15,,,,0,4,4,4,4,4,100,,,,,,,,,,,,,,,,,,,,,,
1629975493,52,0,4427.179688,4226.153809,4175.897461,4170.769043,4415.384766,0,1,15,,,,0,4,4,4,4,4,100,,,,,,,,26,0,0.273652,-0.255615,0.677734,0.632813,0.672862,-0.742199,-0.008789,-60.081993,-56.111393,44.846596,,,
1629975493,53,0,4398.974121,4231.794922,4183.077148,4171.794922,4365.641113,0,1,15,,,,0,4,4,4,4,4,100,,,,,,,,,,,,,,,,,,,,,,
1629975493,54,0,4322.563965,4231.282227,4173.333496,4167.692383,4324.102539,0,1,15,,,,0,4,4,4,4,4,100,,,,,,,,27,0,0.277716,-0.256104,0.67749,0.631104,0.695323,-0.766125,-0.013184,-57.961796,-55.943451,44.788273,,,
1629975493,55,0,4288.717773,4227.692383,4166.666504,4171.282227,4324.102539,0,1,15,,,,0,4,4,4,4,4,100,,,,,,,,,,,,,,,,,,,,,,
1629975493,56,0,4342.05127,4235.384766,4181.538574,4181.025879,4320,0,1,15,,,,0,4,4,4,4,4,100,,,,,,,,28,0,0.280635,-0.25708,0.677734,0.62915,0.708995,-0.747082,-0.019043,-59.702351,-55.732491,44.496521,,,
1629975493,57,0,4370.256348,4237.436035,4174.358887,4180.512695,4303.589844,0,1,15,,,,0,4,4,4,4,4,100,,,,,,,,,,,,,,,,,,,,,,
1629975493,58,0,4324.615234,4238.461426,4180.512695,4182.05127,4312.307617,0,1,15,,,,0,4,4,4,4,4,100,,,,,,,,29,0,0.283506,-0.258057,0.677979,0.627197,0.704112,-0.713878,-0.015137,-61.268852,-55.363178,44.533024,,,
1629975493,59,0,4298.974121,4244.615234,4185.641113,4191.282227,4324.615234,0,1,15,,,,0,4,4,4,4,4,100,,,,,,,,,,,,,,,,,,,,1,0,0
1629975494,60,0,4331.282227,4245.641113,4174.871582,4196.410156,4303.077148,0,1,15,,,,0,4,4,4,4,4,100,,,,,,,,30,0,0.285928,-0.258789,0.678711,0.625,0.717784,-0.675792,-0.000488,-59.209412,-55.150425,44.565872,,,
1629975494,61,0,4335.384766,4254.358887,4193.333496,4209.230957,4305.641113,0,1,15,,,,0,4,4,4,4,4,100,,,,,,,,,,,,,,,,,,,,,,
1629975494,62,0,4275.384766,4254.871582,4197.436035,4213.846191,4343.077148,0,1,15,,,,0,4,4,4,4,4,100,,,,,,,,31,0,0.287692,-0.259033,0.679443,0.623291,0.706554,-0.655772,-0.002441,-57.355915,-54.899136,44.475807,,,
1629975494,63,0,4227.692383,4250.256348,4194.358887,4215.897461,4305.641113,0,1,15,,,,0,4,4,4,4,4,100,,,,,,,,,,,,,,,,,,,,,,
1629975494,64,0,4240.512695,4268.717773,4203.589844,4233.333496,4243.589844,450,1,15,,,,0,4,4,4,4,4,100,,,,,,,,32,0,0.289264,-0.259521,0.679932,0.621826,0.721691,-0.632334,0.01416,-59.216877,-54.672974,44.334934,,,
1629975494,65,0,4261.538574,4280,4202.563965,4236.410156,4287.692383,450,1,15,,,,0,4,4,4,4,4,100,,,,,,,,,,,,,,,,,,,,,,
1629975494,66,0,4258.461426,4281.025879,4214.358887,4230.769043,4352.307617,16204,1,15,,,,0,4,4,4,4,4,100,,,,,,,,33,0,0.285928,-0.258789,0.678711,0.625,0.717784,-0.675792,-0.000488,-60.951553,-54.409615,44.208145,,,
1629975494,67,0,4255.384766,4290.256348,4216.922852,4234.871582,4327.179688,450,1,15,,,,0,4,4,4,4,4,100,,,,,,,,,,,,,,,,,,,,,,
1629975494,68,0,4264.102539,4289.743652,4216.410156,4242.05127,4276.922852,16208,1,15,,,,0,4,4,4,4,4,100,,,,,,,,34,0,0.289264,-0.259521,0.679932,0.621826,0.721691,-0.632334,0.01416,-62.45295,-54.232407,44.094036,,,
1629975494,69,0,4253.333496,4289.230957,4223.589844,4253.333496,4251.282227,450,1,15,,,,0,4,4,4,4,4,100,,,,,,,,,,,,,,,,,,,,,,
1629975494,70,0,4235.897461,4303.589844,4225.128418,4259.487305,4268.205078,16212,1,15,,,,0,4,4,4,4,4,100,,,,,,,,35,0,0.29065,-0.260254,0.680176,0.620605,0.717296,-0.632822,0.021485,-63.744392,-53.953285,43.931526,,,
1629975494,71,0,4263.589844,4310.769043,4237.436035,4261.538574,4330.256348,450,1,15,,,,0,4,4,4,4,4,100,,,,,,,,,,,,,,,,,,,,,,
1629975494,72,0,4278.461426,4305.128418,4237.436035,4264.102539,4326.666504,450,1,15,,,,0,4,4,4,4,4,100,,,,,,,,36,0,0.292809,-0.260742,0.680176,0.619385,0.729503,-0.60499,0.015625,-61.25795,-53.761894,43.785263,,,
1629975494,73,0,4265.641113,4311.282227,4243.589844,4271.794922,4262.563965,16195,1,15,,,,0,4,4,4,4,4,100,,,,,,,,,,,,,,,,,,,,,,
1629975494,74,0,4289.743652,4324.102539,4256.410156,4284.615234,4291.794922,450,1,15,,,,0,4,4,4,4,4,100,,,,,,,,37,0,0.293971,-0.26123,0.679932,0.618896,0.734874,-0.574228,0.012696,-62.668892,-53.649456,43.653629,,,
1629975494,75,0,4303.077148,4323.589844,4248.205078,4286.666504,4349.743652,16210,1,15,,,,0,4,4,4,4,4,100,,,,,,,,,,,,,,,,,,,,1,0,0
1629975494,76,0,4268.717773,4329.743652,4265.641113,4291.794922,4325.641113,450,1,15,,,,0,4,4,4,4,4,100,,,,,,,,38,0,0.29478,-0.261475,0.679932,0.618408,0.746105,-0.580575,-0.001953,-63.878925,-53.667892,43.594971,,,
1629975494,77,0,4273.846191,4342.05127,4283.589844,4307.179688,4320.512695,450,1,15,,,,0,4,4,4,4,4,100,,,,,,,,,,,,,,,,,,,,,,
1629975494,78,0,4332.820313,4338.974121,4273.846191,4309.230957,4363.589844,450,1,15,,,,0,4,4,4,4,4,100,,,,,,,,39,0,0.295421,-0.261963,0.679688,0.618164,0.732433,-0.606455,-0.004395,-65.027771,-53.505043,43.542179,,,
1629975494,79,0,4358.974121,4340.512695,4269.743652,4305.128418,4407.179688,16210,1,15,,,,0,4,4,4,4,4,100,,,,,,,,,,,,,,,,,,,,,,
1629975494,80,0,4312.307617,4348.717773,4277.94873,4311.794922,4414.871582,450,1,15,,,,0,4,4,4,4,4,100,,,,,,,,40,0,0.296911,-0.262695,0.679199,0.617676,0.763195,-0.640635,-0.003418,-66.061729,-53.358475,43.674114,,,
1629975494,81,0,4254.871582,4341.538574,4300,4320,4365.128418,450,1,15,,,,0,4,4,4,4,4,100,,,,,,,,,,,,,,,,,,,,,,
1629975494,82,0,4271.794922,4336.410156,4332.307617,4322.05127,4347.692383,450,1,15,,,,0,4,4,4,4,4,100,,,,,,,,41,0,0.299018,-0.263916,0.678467,0.616943,0.771496,-0.622568,-0.008789,-67.052109,-53.166748,43.792854,,,
1629975494,83,0,4327.179688,4348.717773,4296.922852,4319.487305,4402.563965,16210,1,15,,,,0,4,4,4,4,4,100,,,,,,,,,,,,,,,,,,,,,,
1629975494,84,0,4317.436035,4337.436035,4242.563965,4298.974121,4429.743652,450,1,15,,,,0,4,4,4,4,4,100,,,,,,,,42,0,0.301052,-0.265137,0.677979,0.615967,0.780285,-0.593759,-0.01709,-67.823814,-52.814751,43.78009,,,
1629975494,85,0,4283.077148,4347.179688,4432.820313,4341.025879,4412.307617,450,1,15,,,,0,4,4,4,4,4,100,,,,,,,,,,,,,,,,,,,,,,
1629975494,86,0,4332.307617,4393.846191,4230.769043,4375.384766,4451.282227,450,1,15,,,,0,4,4,4,4,4,100,,,,,,,,43,0,0.302783,-0.266113,0.67749,0.615234,0.817395,-0.546883,-0.011719,-68.637985,-52.737209,43.768604,,,
1629975494,87,0,4402.563965,4390.256348,3843.589844,4298.461426,4508.205078,16210,1,15,,,,0,4,4,4,4,4,100,,,,,,,,,,,,,,,,,,,,,,
1629975494,88,0,4423.589844,4434.358887,4333.846191,4353.333496,4530.256348,450,1,15,,,,0,4,4,4,4,4,100,,,,,,,,44,0,0.304332,-0.266602,0.67749,0.614258,0.791516,-0.516609,-0.016114,-69.310921,-52.607613,43.818081,,,
1629975494,89,0,4391.282227,4464.615234,4530.769043,4421.538574,4510.256348,450,1,15,,,,0,4,4,4,4,4,100,,,,,,,,,,,,,,,,,,,,,,
1629975494,90,0,4352.307617,4412.307617,4267.692383,4361.025879,4485.641113,450,1,15,,,,0,4,4,4,4,4,100,,,,,,,,45,0,0.305102,-0.266846,0.67749,0.61377,0.772961,-0.54493,0,-70.036201,-52.610603,43.742981,,,
1629975494,91,0,4373.333496,4428.717773,4431.282227,4386.666504,4503.077148,16210,1,15,,,,0,4,4,4,4,4,100,,,,,,,,,,,,,,,,,,,,1,0,0
1629975494,92,0,4386.153809,4446.153809,4421.538574,4408.717773,4524.102539,450,1,15,,,,0,4,4,4,4,4,100,,,,,,,,46,0,0.306094,-0.267334,0.677734,0.612793,0.823743,-0.566903,-0.010742,-70.688942,-52.553478,43.615574,,,
1629975494,93,0,4420,4434.358887,4367.692383,4406.666504,4572.820313,450,1,15,,,,0,4,4,4,4,4,100,,,,,,,,,,,,,,,,,,,,,,
1629975494,94,0,4526.153809,4448.205078,4428.205078,4435.897461,4620.512695,450,1,15,,,,0,4,4,4,4,4,100,,,,,,,,47,0,0.307677,-0.268311,0.677734,0.611572,0.828626,-0.565927,-0.019532,-71.216599,-52.502068,43.560722,,,
1629975494,95,0,4523.077148,4461.025879,4423.589844,4444.102539,4571.794922,16210,1,15,,,,0,4,4,4,4,4,100,,,,,,,,,,,,,,,,,,,,,,
1629975494,96,0,4411.794922,4482.563965,4466.153809,4470.256348,4521.025879,450,1,15,,,,0,4,4,4,4,4,100,,,,,,,,48,0,0.308651,-0.268799,0.677979,0.610596,0.842786,-0.532723,-0.006348,-71.631676,-52.395981,43.511356,,,
1629975494,97,0,4457.436035,4506.153809,4482.05127,4495.384766,4609.743652,450,1,15,,,,0,4,4,4,4,4,100,,,,,,,,,,,,,,,,,,,,,,
1629975494,98,0,4664.615234,4539.487305,4515.897461,4511.282227,4773.846191,450,1,15,,,,0,4,4,4,4,4,100,,,,,,,,49,0,0.309405,-0.269531,0.678223,0.609619,0.843275,-0.539559,-0.006348,-72.005249,-52.240692,43.466927,,,
1629975494,99,0,4729.230957,4577.436035,4562.563965,4533.333496,4825.128418,16210,1,15,,,,0,4,4,4,4,4,100,,,,,,,,,,,,,,,,,,,,,,
1629975494,100,0,4623.589844,4598.461426,4581.025879,4554.358887,4726.153809,450,1,15,,,,0,4,4,4,4,4,100,,,,,,,,50,0,0.309137,-0.270264,0.678711,0.608887,0.829602,-0.542489,0.009766,-72.341461,-52.041111,43.426941,,,
1629975494,101,0,4627.692383,4610.769043,4600,4571.794922,4714.871582,450,1,15,,,,0,4,4,4,4,4,100,,,,,,,,,,,,,,,,,,,,,,
1629975494,102,0,4728.717773,4630.769043,4615.384766,4589.743652,4849.743652,450,1,15,,,,0,4,4,4,4,4,100,,,,,,,,51,0,0.309881,-0.270996,0.678955,0.60791,0.816907,-0.568856,0.025391,-72.524414,-52.040939,43.390953,,,
1629975494,103,0,4730.256348,4643.077148,4636.922852,4607.692383,4853.846191,16210,1,15,,,,0,4,4,4,4,4,100,,,,,,,,,,,,,,,,,,,,,,
1629975494,104,0,4673.846191,4634.358887,4640.512695,4611.282227,4747.179688,450,1,15,,,,0,4,4,4,4,4,100,,,,,,,,52,0,0.310461,-0.271973,0.678955,0.607178,0.828626,-0.56495,0.004395,-72.748894,-51.92115,43.358562,,,
1629975494,105,0,4661.025879,4628.717773,4633.846191,4603.589844,4775.384766,450,1,15,,,,0,4,4,4,4,4,100,,,,,,,,,,,,,,,,,,,,,,
1629975494,106,0,4692.307617,4640,4647.179688,4599.487305,4871.282227,450,1,15,,,,0,4,4,4,4,4,100,,,,,,,,53,0,0.310821,-0.273193,0.678955,0.606445,0.813489,-0.545907,0.025879,-73.010742,-51.932972,43.449043,,,
1629975497,43,0,4040.512939,4138.461426,4132.820313,4114.871582,4144.615234,0,1,15,,,,0,4,4,4,4,4,100,1,41.666668,1,3,3,4,1,,,,,,,,,,,,,1,0,0
1629975497,44,0,4002.564209,4135.897461,4130.256348,4105.128418,4111.794922,0,1,15,,,,0,4,4,4,4,4,100,,,,,,,,22,0,0.235179,-0.250977,0.692383,0.634277,0.660166,-0.768078,0.030762,-64.461143,-57.04377,44.028,,,
1629975497,45,0,4015.897461,4138.461426,4140.512695,4098.461426,4138.974121,0,1,15,,,,0,4,4,4,4,4,100,,,,,,,,,,,,,,,,,,,,,,
1629975497,46,0,4073.333252,4144.102539,4138.974121,4096.922852,4173.333496,0,1,15,,,,0,4,4,4,4,4,100,,,,,,,,23,0,0.235772,-0.251709,0.692139,0.634033,0.648936,-0.768078,0.041505,-65.491951,-57.021851,44.111355,,,
1629975497,47,0,4065.128174,4151.282227,4136.410156,4095.897461,4188.205078,0,1,15,,,,0,4,4,4,4,4,100,,,,,,,,,,,,,,,,,,,,,,
1629975497,48,0,4051.281982,4152.820313,4138.974121,4093.333252,4188.717773,0,1,15,,,,0,4,4,4,4,4,100,,,,,,,,24,0,0.235907,-0.252197,0.692139,0.633789,0.654307,-0.778332,0.039551,-66.539307,-57.002129,44.186371,,,
1629975497,49,0,4051.281982,4152.307617,4133.846191,4091.281982,4123.589844,0,1,15,,,,0,4,4,4,4,4,100,,,,,,,,,,,,,,,,,,,,,,
1629975497,50,0,4008.205078,4161.025879,4141.025879,4101.025879,4032.307617,0,1,15,,,,0,4,4,4,4,4,100,,,,,,,,25,0,0.237147,-0.25293,0.691895,0.633301,0.650889,-0.762219,0.052735,-67.481926,-56.864742,44.134254,,,
1629975497,51,0,3995.384521,4161.025879,4147.179688,4101.025879,4086.153809,0,1,15,,,,0,4,4,4,4,4,100,,,,,,,,,,,,,,,,,,,,,,
1629975497,52,0,4055.897461,4141.538574,4135.897461,4090.256348,4220,0,1,15,,,,0,4,4,4,4,4,100,,,,,,,,26,0,0.237728,-0.253662,0.69165,0.633057,0.649424,-0.763195,0.030762,-68.330284,-56.741096,44.206982,,,
1629975497,53,0,4079.487061,4138.461426,4135.384766,4096.410156,4190.256348,0,1,15,,,,0,4,4,4,4,4,100,,,,,,,,,,,,,,,,,,,,,,
1629975497,54,0,4037.94873,4155.897461,4138.974121,4097.94873,4093.333252,0,1,15,,,,0,4,4,4,4,4,100,,,,,,,,27,0,0.237856,-0.25415,0.69165,0.632813,0.660166,-0.761242,0.030274,-69.033989,-56.689632,44.332253,,,
1629975497,55,0,4047.179443,4155.897461,4133.846191,4086.666748,4121.025879,0,1,15,,,,0,4,4,4,4,4,100,,,,,,,,,,,,,,,,,,,,,,
1629975497,56,0,4065.128174,4144.102539,4131.794922,4093.846191,4133.333496,0,1,15,,,,0,4,4,4,4,4,100,,,,,,,,28,0,0.237984,-0.254639,0.69165,0.632568,0.674327,-0.772961,0.038087,-69.607513,-56.643314,44.265549,,,
1629975498,57,0,4024.615479,4150.769043,4136.410156,4106.153809,4078.461426,0,1,15,,,,0,4,4,4,4,4,100,,,,,,,,,,,,,,,,,,,,,,
1629975498,58,0,4005.641113,4166.153809,4143.077148,4103.589844,4112.307617,0,1,15,,,,0,4,4,4,4,4,100,,,,,,,,29,0,0.238817,-0.255127,0.691406,0.632324,0.662608,-0.793469,0.039551,-70.12368,-56.481995,44.265331,,,
1629975498,59,0,4042.05127,4160.512695,4139.487305,4096.410156,4174.871582,0,1,15,,,,0,4,4,4,4,4,100,,,,,,,,,,,,,,,,,,,,1,0,0
1629975498,60,0,4076.923096,4152.307617,4131.794922,4097.94873,4165.641113,0,1,15,,,,0,4,4,4,4,4,100,,,,,,,,30,0,0.239647,-0.255615,0.691162,0.63208,0.681163,-0.794446,0.044923,-66.999313,-56.516254,44.265133,,,
1629975498,61,0,4040.512939,4160,4133.333496,4106.666504,4126.666504,0,1,15,,,,0,4,4,4,4,4,100,,,,,,,,,,,,,,,,,,,,,,
1629975498,62,0,4006.153809,4158.974121,4133.333496,4101.538574,4115.897461,0,1,15,,,,0,4,4,4,4,4,100,,,,,,,,31,0,0.240212,-0.256348,0.690918,0.631836,0.683116,-0.781262,0.032715,-67.716484,-56.42746,44.264957,,,
1629975498,63,0,4063.589844,4154.871582,4140.512695,4101.025879,4148.205078,0,1,15,,,,0,4,4,4,4,4,100,,,,,,,,,,,,,,,,,,,,,,
1629975498,64,0,4092.820557,4166.666504,4150.769043,4118.461426,4133.333496,450,1,15,,,,0,4,4,4,4,4,100,,,,,,,,32,0,0.240071,-0.25708,0.690918,0.631592,0.683604,-0.792004,0.04004,-68.421761,-56.407356,44.204983,,,
1629975498,65,0,4055.897461,4172.307617,4149.743652,4122.05127,4087.692383,450,1,15,,,,0,4,4,4,4,4,100,,,,,,,,,,,,,,,,,,,,,,
1629975498,66,0,4071.794922,4170.769043,4148.205078,4111.282227,4154.358887,16245,1,15,,,,0,4,4,4,4,4,100,,,,,,,,33,0,0.240629,-0.257813,0.690674,0.631348,0.681651,-0.8047,0.043946,-68.996689,-56.329453,44.09119,,,
1629975498,67,0,4067.692383,4175.897461,4145.641113,4110.769043,4200.512695,450,1,15,,,,0,4,4,4,4,4,100,,,,,,,,,,,,,,,,,,,,,,
1629975498,68,0,4015.897461,4167.692383,4134.871582,4116.922852,4104.615234,16237,1,15,,,,0,4,4,4,4,4,100,,,,,,,,34,0,0.241822,-0.258545,0.69043,0.630859,0.658701,-0.791516,0.042969,-69.813202,-56.19952,44.048595,,,
1629975498,69,0,4057.94873,4156.922852,4129.230957,4113.333496,4066.153809,450,1,15,,,,0,4,4,4,4,4,100,,,,,,,,,,,,,,,,,,,,,,
1629975498,70,0,4117.436035,4166.153809,4132.820313,4106.666504,4131.282227,16193,1,15,,,,0,4,4,4,4,4,100,,,,,,,,35,0,0.242311,-0.259277,0.69043,0.630371,0.676768,-0.792981,0.040528,-66.89933,-56.142395,44.129887,,,
1629975498,71,0,4086.153809,4172.820313,4134.358887,4099.487305,4166.666504,450,1,15,,,,0,4,4,4,4,4,100,,,,,,,,,,,,,,,,,,,,,,
1629975498,72,0,4042.05127,4169.743652,4131.794922,4096.922852,4135.897461,450,1,15,,,,0,4,4,4,4,4,100,,,,,,,,36,0,0.242856,-0.26001,0.690186,0.630127,0.685557,-0.78175,0.049805,-67.626503,-56.03117,44.08342,,,
1629975498,73,0,4021.538574,4180,4141.538574,4107.179688,4057.435791,16202,1,15,,,,0,4,4,4,4,4,100,,,,,,,,,,,,,,,,,,,,,,
1629975498,74,0,4052.820557,4187.692383,4150.769043,4113.333496,4066.153809,450,1,15,,,,0,4,4,4,4,4,100,,,,,,,,37,0,0.243767,-0.260986,0.689941,0.629639,0.689464,-0.802747,0.049317,-68.340767,-55.990883,43.981785,,,
1629975498,75,0,4163.589844,4177.94873,4141.025879,4105.128418,4191.794922,16210,1,15,,,,0,4,4,4,4,4,100,,,,,,,,,,,,,,,,,,,,1,0,0
1629975498,76,0,4182.05127,4171.282227,4133.846191,4106.153809,4227.179688,450,1,15,,,,0,4,4,4,4,4,100,,,,,,,,38,0,0.24493,-0.261719,0.689697,0.62915,0.683604,-0.792004,0.042969,-69.103241,-55.954624,44.069759,,,
1629975498,77,0,4019.487061,4170.769043,4137.94873,4114.358887,4113.333496,450,1,15,,,,0,4,4,4,4,4,100,,,,,,,,,,,,,,,,,,,,,,
1629975498,78,0,3973.333252,4176.922852,4147.179688,4118.974121,4063.076904,450,1,15,,,,0,4,4,4,4,4,100,,,,,,,,39,0,0.245824,-0.262695,0.689453,0.628662,0.680674,-0.775891,0.035645,-66.080917,-55.742542,44.029305,,,
1629975498,79,0,4137.436035,4187.179688,4151.282227,4120,4117.436035,16210,1,15,,,,0,4,4,4,4,4,100,,,,,,,,,,,,,,,,,,,,,,
1629975498,80,0,4174.358887,4178.974121,4147.179688,4112.307617,4129.743652,450,1,15,,,,0,4,4,4,4,4,100,,,,,,,,40,0,0.246971,-0.263428,0.689209,0.628174,0.683116,-0.773449,0.033692,-63.540272,-55.671303,43.992897,,,
1629975498,81,0,4055.384521,4169.743652,4147.692383,4111.794922,4129.230957,450,1,15,,,,0,4,4,4,4,4,100,,,,,,,,,,,,,,,,,,,,,,
1629975498,82,0,4060.512939,4175.384766,4146.153809,4117.436035,4157.94873,450,1,15,,,,0,4,4,4,4,4,100,,,,,,,,41,0,0.24749,-0.26416,0.688965,0.62793,0.688487,-0.775891,0.032227,-61.074245,-55.607185,44.019943,,,
1629975498,83,0,4140.512695,4175.384766,4137.436035,4109.743652,4156.922852,16210,1,15,,,,0,4,4,4,4,4,100,,,,,,,,,,,,,,,,,,,,,,
1629975498,84,0,4126.666504,4167.179688,4131.282227,4099.487305,4126.666504,450,1,15,,,,0,4,4,4,4,4,100,,,,,,,,42,0,0.249297,-0.264893,0.688477,0.627441,0.683604,-0.777844,0.042969,-58.914635,-55.489666,44.163918,,,
1629975498,85,0,4074.358887,4165.641113,4132.307617,4098.461426,4121.025879,450,1,15,,,,0,4,4,4,4,4,100,,,,,,,,,,,,,,,,,,,,,,
1629975498,86,0,4043.589844,4176.922852,4139.487305,4108.717773,4121.025879,450,1,15,,,,0,4,4,4,4,4,100,,,,,,,,43,0,0.246971,-0.263428,0.689209,0.628174,0.683116,-0.773449,0.033692,-60.500092,-55.264267,44.293491,,,
1629975498,87,0,4064.102539,4184.615234,4139.487305,4118.461426,4098.974121,16210,1,15,,,,0,4,4,4,4,4,100,,,,,,,,,,,,,,,,,,,,,,
1629975498,88,0,4141.538574,4181.025879,4141.538574,4121.538574,4136.410156,450,1,15,,,,0,4,4,4,4,4,100,,,,,,,,44,0,0.249297,-0.264893,0.688477,0.627441,0.683604,-0.777844,0.042969,-58.397896,-55.181038,44.41011,,,
1629975498,89,0,4159.487305,4181.538574,4151.282227,4123.077148,4175.897461,450,1,15,,,,0,4,4,4,4,4,100,,,,,,,,,,,,,,,,,,,,,,
1629975498,90,0,4046.153809,4179.487305,4148.717773,4118.974121,4070.769287,450,1,15,,,,0,4,4,4,4,4,100,,,,,,,,45,0,0.250159,-0.265869,0.688232,0.626953,0.693858,-0.772473,0.043458,-60.094841,-55.165947,44.395439,,,
1629975498,91,0,4001.538574,4177.436035,4143.077148,4113.333496,4027.179443,16210,1,15,,,,0,4,4,4,4,4,100,,,,,,,,,,,,,,,,,,,,1,0,0
1629975498,92,0,4144.102539,4184.102539,4138.974121,4109.743652,4195.384766,450,1,15,,,,0,4,4,4,4,4,100,,,,,,,,46,0,0.252029,-0.26709,0.687744,0.626221,0.697276,-0.776867,0.046387,-61.502464,-55.092552,44.442047,,,
1629975498,93,0,4221.025879,4190.256348,4142.563965,4113.846191,4271.794922,450,1,15,,,,0,4,4,4,4,4,100,,,,,,,,,,,,,,,,,,,,,,
1629975498,94,0,4105.641113,4186.153809,4155.384766,4124.615234,4137.94873,450,1,15,,,,0,4,4,4,4,4,100,,,,,,,,47,0,0.25287,-0.268066,0.6875,0.625732,0.687999,-0.757824,0.044923,-62.888954,-54.966679,44.543808,,,
1629975498,95,0,4018.461426,4181.025879,4152.820313,4120.512695,4045.128174,16210,1,15,,,,0,4,4,4,4,4,100,,,,,,,,,,,,,,,,,,,,,,
1629975498,96,0,4068.718018,4187.692383,4153.333496,4117.436035,4081.538574,450,1,15,,,,0,4,4,4,4,4,100,,,,,,,,48,0,0.254363,-0.269043,0.687012,0.625244,0.709972,-0.740734,0.043946,-64.076981,-54.793579,44.635395,,,
1629975498,97,0,4135.897461,4190.769043,4161.538574,4124.102539,4155.897461,450,1,15,,,,0,4,4,4,4,4,100,,,,,,,,,,,,,,,,,,,,,,
1629975498,98,0,4131.794922,4187.692383,4152.307617,4117.94873,4192.820313,450,1,15,,,,0,4,4,4,4,4,100,,,,,,,,49,0,0.255444,-0.269775,0.686768,0.624756,0.71046,-0.739757,0.030274,-61.557278,-54.637791,44.658009,,,
1629975498,99,0,4078.461426,4191.282227,4135.897461,4110.256348,4132.820313,16210,1,15,,,,0,4,4,4,4,4,100,,,,,,,,,,,,,,,,,,,,,,
1629975498,100,0,4065.128174,4194.358887,4132.307617,4111.794922,4066.666748,450,1,15,,,,0,4,4,4,4,4,100,,,,,,,,50,0,0.25626,-0.270752,0.686523,0.624268,0.706554,-0.744152,0.042969,-59.289551,-54.557392,44.67836,,,
1629975498,101,0,4120.512695,4196.922852,4146.153809,4110.769043,4093.333252,450,1,15,,,,0,4,4,4,4,4,100,,,,,,,,,,,,,,,,,,,,,,
1629975498,102,0,4143.589844,4199.487305,4148.205078,4107.179688,4124.102539,450,1,15,,,,0,4,4,4,4,4,100,,,,,,,,51,0,0.257401,-0.271973,0.686279,0.623535,0.701671,-0.745617,0.035157,-57.248592,-54.604668,44.63686,,,
1629975498,103,0,4100,4196.410156,4140.512695,4110.256348,4120,16210,1,15,,,,0,4,4,4,4,4,100,,,,,,,,,,,,,,,,,,,,,,
1629975498,104,0,4060,4197.94873,4155.897461,4128.205078,4104.102539,450,1,15,,,,0,4,4,4,4,4,100,,,,,,,,52,0,0.259434,-0.272949,0.685791,0.622803,0.711925,-0.721202,0.037598,-55.47155,-54.587399,44.659328,,,
1629975498,105,0,4089.230713,4202.563965,4165.641113,4136.922852,4103.077148,450,1,15,,,,0,4,4,4,4,4,100,,,,,,,,,,,,,,,,,,,,,,
1629975498,106,0,4149.743652,4200,4153.846191,4126.666504,4135.897461,450,1,15,,,,0,4,4,4,4,4,100,,,,,,,,53,0,0.259964,-0.27417,0.685547,0.622314,0.723644,-0.71632,0.045411,-57.281685,-54.39241,44.679546,,,
1629975498,107,0,4131.794922,4196.922852,4143.589844,4123.077148,4158.461426,16210,1,15,,,,0,4,4,4,4,4,100,1,41.666668,1,3,3,3,1,,,,,,,,,,,,,1,0,0
1629975498,108,0,4080,4197.436035,4147.692383,4129.230957,4135.897461,450,1,15,,,,0,4,4,4,4,4,100,,,,,,,,54,0,0.261324,-0.275146,0.685303,0.621582,0.712902,-0.719249,0.045899,-59.090252,-54.157108,44.697746,,,
1629975498,109,0,4132.820313,4210.769043,4166.666504,4138.974121,4142.05127,450,1,15,,,,0,4,4,4,4,4,100,,,,,,,,,,,,,,,,,,,,,,
1629975498,110,0,4194.358887,4217.94873,4174.358887,4141.538574,4181.025879,450,1,15,,,,0,4,4,4,4,4,100,,,,,,,,55,0,0.262094,-0.276123,0.685059,0.621094,0.727062,-0.705577,0.038087,-57.069225,-54.124779,44.654308,,,
1629975498,111,0,4138.461426,4210.769043,4171.282227,4140.512695,4166.666504,16210,1,15,,,,0,4,4,4,4,4,100,,,,,,,,,,,,,,,,,,,,,,
1629975498,112,0,4101.025879,4216.922852,4175.897461,4151.282227,4132.307617,450,1,15,,,,0,4,4,4,4,4,100,,,,,,,,56,0,0.264066,-0.2771,0.68457,0.620361,0.728527,-0.698741,0.048341,-58.89904,-54.03587,44.495583,,,
1629975498,113,0,4156.922852,4225.128418,4180,4162.05127,4139.487305,450,1,15,,,,0,4,4,4,4,4,100,,,,,,,,,,,,,,,,,,,,,,
1629975498,114,0,4187.692383,4221.025879,4184.102539,4161.025879,4175.384766,450,1,15,,,,0,4,4,4,4,4,100,,,,,,,,57,0,0.264818,-0.278076,0.684326,0.619873,0.71339,-0.703624,0.039551,-60.545872,-53.955849,44.532177,,,
1629975498,115,0,4162.05127,4216.410156,4174.871582,4143.077148,4189.743652,16210,1,15,,,,0,4,4,4,4,4,100,,,,,,,,,,,,,,,,,,,,,,
1629975498,116,0,4154.358887,4218.461426,4156.922852,4126.666504,4174.871582,450,1,15,,,,0,4,4,4,4,4,100,,,,,,,,58,0,0.266191,-0.279053,0.683838,0.619385,0.729503,-0.686534,0.039063,-61.968204,-53.824017,44.624928,,,
1629975498,117,0,4155.897461,4221.025879,4163.589844,4142.563965,4161.025879,450,1,15,,,,0,4,4,4,4,4,100,,,,,,,,,,,,,,,,,,,,,,
1629975498,118,0,4142.05127,4220.512695,4185.128418,4164.615234,4140,450,1,15,,,,0,4,4,4,4,4,100,,,,,,,,59,0,0.267183,-0.279785,0.683594,0.618896,0.727062,-0.674327,0.039063,-63.248306,-53.705368,44.648586,,,
1629975498,119,0,4130.769043,4226.153809,4195.384766,4167.179688,4133.846191,16210,1,15,,,,0,4,4,4,4,4,100,,,,,,,,,,,,,,,,,,,,,,
1629975498,120,0,4128.205078,4226.666504,4188.717773,4158.461426,4162.05127,450,1,15,,,,0,4,4,4,4,4,100,,,,,,,,60,0,0.267972,-0.280762,0.683105,0.618652,0.749523,-0.69044,0.048829,-64.460213,-53.658398,44.66988,,,
1629975498,121,0,4162.05127,4213.846191,4173.333496,4147.179688,4180.512695,450,1,15,,,,0,4,4,4,4,4,100,,,,,,,,,,,,,,,,,,,,,,
1629975498,122,0,4202.563965,4212.307617,4167.692383,4148.205078,4158.461426,450,1,15,,,,0,4,4,4,4,4,100,,,,,,,,61,0,0.269059,-0.281982,0.682617,0.618164,0.750988,-0.681163,0.049317,-65.550926,-53.616127,44.689045,,,
1629975498,123,0,4178.974121,4225.128418,4171.282227,4152.307617,4156.410156,16210,1,15,,,,0,4,4,4,4,4,100,,,,,,,,,,,,,,,,,,,,1,0,0
1629975498,124,0,4132.307617,4223.077148,4176.410156,4148.717773,4175.897461,450,1,15,,,,0,4,4,4,4,4,100,,,,,,,,62,0,0.270088,-0.282715,0.682129,0.61792,0.760754,-0.681163,0.037598,-66.592384,-53.45845,44.586662,,,
1629975498,125,0,4109.230957,4217.94873,4177.94873,4150.769043,4140,450,1,15,,,,0,4,4,4,4,4,100,,,,,,,,,,,,,,,,,,,,,,
1629975498,126,0,4149.743652,4229.230957,4180,4163.077148,4129.230957,450,1,15,,,,0,4,4,4,4,4,100,,,,,,,,63,0,0.270854,-0.283691,0.681641,0.617676,0.768566,-0.648936,0.045411,-67.410065,-53.196911,44.614147,,,
1629975498,127,0,4230.256348,4238.974121,4182.05127,4172.820313,4215.384766,232,1,15,,,,0,4,4,4,4,4,100,,,,,,,,,,,,,,,,,,,,,,
1629975498,0,0,4181.025879,4237.436035,4182.563965,4167.692383,4227.179688,450,1,15,,,,0,4,4,4,4,4,100,,,,,,,,0,0,0.271869,-0.284424,0.681152,0.617432,0.751965,-0.658701,0.041993,-68.26561,-53.200787,44.638885,,,
1629975498,1,0,4080.512939,4240,4195.384766,4166.153809,4134.871582,450,1,15,,,,0,4,4,4,4,4,100,,,,,,,,,,,,,,,,,,,,,,
1629975498,2,0,4165.128418,4245.128418,4200,4177.94873,4159.487305,16232,1,15,,,,0,4,4,4,4,4,100,,,,,,,,1,0,0.272877,-0.285156,0.680664,0.617188,0.7505,-0.664561,0.042969,-68.796341,-53.204277,44.601334,,,
1629975498,3,0,4290.256348,4237.94873,4185.641113,4178.974121,4242.05127,450,1,15,,,,0,4,4,4,4,4,100,,,,,,,,,,,,,,,,,,,,,,
1629975498,4,0,4217.436035,4232.307617,4187.179688,4171.794922,4202.05127,16219,1,15,,,,0,4,4,4,4,4,100,,,,,,,,2,0,0.273879,-0.285889,0.680176,0.616943,0.764172,-0.667979,0.047364,-69.333809,-53.027969,44.567539,,,
1629975498,5,0,4102.05127,4241.538574,4194.358887,4172.820313,4131.794922,450,1,15,,,,0,4,4,4,4,4,100,,,,,,,,,,,,,,,,,,,,,,
1629975498,6,0,4135.384766,4251.282227,4194.358887,4180,4139.487305,16201,1,15,,,,0,4,4,4,4,4,100,,,,,,,,3,0,0.275166,-0.286865,0.679688,0.616455,0.758312,-0.664073,0.037598,-69.937164,-52.929111,44.656754,,,
1629975498,7,0,4204.102539,4251.282227,4195.897461,4189.743652,4186.666504,450,1,15,,,,0,4,4,4,4,4,100,,,,,,,,,,,,,,,,,,,,,,
1629975498,8,0,4203.589844,4250.256348,4200,4193.333496,4218.461426,450,1,15,,,,0,4,4,4,4,4,100,,,,,,,,4,0,0.276096,-0.287598,0.679443,0.615967,0.776379,-0.635264,0.047364,-70.420372,-52.840137,44.677231,,,
1629975498,9,0,4180.512695,4260.512695,4207.179688,4189.230957,4208.205078,16199,1,15,,,,0,4,4,4,4,4,100,,,,,,,,,,,,,,,,,,,,,,
1629975498,10,0,4184.615234,4258.974121,4200,4178.461426,4176.410156,450,1,15,,,,0,4,4,4,4,4,100,,,,,,,,5,0,0.276477,-0.28833,0.679199,0.615723,0.767102,-0.632334,0.035157,-70.91507,-52.640427,44.635845,,,
1629975498,11,0,4192.820313,4243.077148,4188.717773,4167.179688,4174.871582,16214,1,15,,,,0,4,4,4,4,4,100,,,,,,,,,,,,,,,,,,,,1,0,0
1629975498,12,0,4171.794922,4245.641113,4197.94873,4165.128418,4177.94873,450,1,15,,,,0,4,4,4,4,4,100,,,,,,,,6,0,0.27711,-0.288818,0.678955,0.615479,0.767102,-0.635264,0.049317,-71.360298,-52.580322,44.718227,,,
1629975498,13,0,4183.077148,4255.897461,4205.128418,4165.641113,4175.384766,450,1,15,,,,0,4,4,4,4,4,100,,,,,,,,,,,,,,,,,,,,,,
1629975498,14,0,4212.307617,4257.94873,4197.436035,4170.769043,4194.871582,450,1,15,,,,0,4,4,4,4,4,100,,,,,,,,7,0,0.277542,-0.289551,0.678467,0.615479,0.773449,-0.632822,0.046387,-68.112267,-52.526226,44.792374,,,
1629975498,15,0,4207.179688,4261.538574,4197.94873,4178.461426,4218.461426,16214,1,15,,,,0,4,4,4,4,4,100,,,,,,,,,,,,,,,,,,,,,,
1629975498,16,0,4199.487305,4271.794922,4213.333496,4183.077148,4221.538574,0,1,15,,,,0,4,4,4,4,4,100,,,,,,,,8,0,0.278509,-0.290283,0.677979,0.615234,0.773938,-0.622568,0.027344,-68.957405,-52.298096,44.560024,,,
1629975498,17,0,4206.666504,4276.410156,4223.077148,4189.230957,4198.974121,0,1,15,,,,0,4,4,4,4,4,100,,,,,,,,,,,,,,,,,,,,,,
1629975498,18,0,4227.179688,4268.717773,4217.94873,4185.641113,4196.922852,0,1,15,,,,0,4,4,4,4,4,100,,,,,,,,9,0,0.279387,-0.290527,0.677734,0.61499,0.78175,-0.630869,0.041505,-69.598404,-52.272221,44.470547,,,
1629975498,19,0,4197.94873,4266.666504,4224.102539,4180,4197.436035,0,1,15,,,,0,4,4,4,4,4,100,,,,,,,,,,,,,,,,,,,,,,
1629975498,20,0,4171.794922,4271.282227,4234.871582,4183.589844,4184.615234,0,1,15,,,,0,4,4,4,4,4,100,,,,,,,,10,0,0.280007,-0.291016,0.67749,0.614746,0.777844,-0.617685,0.044434,-70.175301,-52.248936,44.449829,,,
1629975498,21,0,4221.538574,4267.179688,4223.077148,4180.512695,4216.922852,0,1,15,,,,0,4,4,4,4,4,100,,,,,,,,,,,,,,,,,,,,,,
1629975498,22,0,4267.179688,4261.538574,4209.230957,4174.358887,4262.05127,0,1,15,,,,0,4,4,4,4,4,100,,,,,,,,11,0,0.28009,-0.291504,0.677246,0.614746,0.775891,-0.62501,0.038087,-70.694504,-52.168163,44.431183,,,
1629975498,23,0,4262.05127,4268.205078,4211.794922,4180.512695,4246.666504,0,1,15,,,,0,4,4,4,4,4,100,,,,,,,,,,,,,,,,,,,,,,
1629975498,24,0,4226.666504,4278.974121,4221.025879,4190.769043,4224.102539,0,1,15,,,,0,4,4,4,4,4,100,,,,,,,,12,0,0.279387,-0.290527,0.677734,0.61499,0.78175,-0.630869,0.041505,-71.161789,-52.155285,44.354584,,,
1629975498,25,0,4195.384766,4282.05127,4217.94873,4194.871582,4222.563965,0,1,15,,,,0,4,4,4,4,4,100,,,,,,,,,,,,,,,,,,,,,,
1629975498,26,0,4174.358887,4276.410156,4207.179688,4195.384766,4161.025879,0,1,15,,,,0,4,4,4,4,4,100,,,,,,,,13,0,0.28009,-0.291504,0.677246,0.614746,0.775891,-0.62501,0.038087,-71.582344,-52.083878,44.345463,,,
1629975498,27,0,4193.846191,4277.436035,4210.769043,4192.820313,4152.307617,0,1,15,,,,0,4,4,4,4,4,100,,,,,,,,,,,,,,,,,,,,1,0,0
1629975498,28,0,4228.717773,4281.025879,4211.282227,4183.077148,4254.358887,0,1,15,,,,0,4,4,4,4,4,100,,,,,,,,14,0,0.28096,-0.291748,0.677002,0.614502,0.786633,-0.630381,0.029786,-72.020668,-52.079426,44.337254,,,
1629975498,29,0,4238.461426,4276.410156,4203.589844,4174.871582,4290.769043,0,1,15,,,,0,4,4,4,4,4,100,,,,,,,,,,,,,,,,,,,,,,
1629975498,30,0,4238.974121,4275.897461,4205.128418,4183.077148,4227.179688,0,1,15,,,,0,4,4,4,4,4,100,,,,,,,,15,0,0.281041,-0.292236,0.676758,0.614502,0.781262,-0.632822,0.024414,-72.474968,-51.955791,44.329865,,,
1629975498,31,0,4189.743652,4277.436035,4207.179688,4195.897461,4153.333496,0,1,15,,,,0,4,4,4,4,4,100,,,,,,,,,,,,,,,,,,,,,,
1629975498,32,0,4165.641113,4278.461426,4210.256348,4200,4162.05127,0,1,15,,,,0,4,4,4,4,4,100,,,,,,,,16,0,0.281907,-0.29248,0.676514,0.614258,0.782727,-0.631357,0.023926,-73.132187,-51.804188,44.31723,,,
1629975498,33,0,4222.05127,4283.589844,4213.333496,4200.512695,4252.820313,0,1,15,,,,0,4,4,4,4,4,100,,,,,,,,,,,,,,,,,,,,,,
1629975498,34,0,4264.615234,4284.615234,4209.230957,4197.94873,4293.333496,0,1,15,,,,0,4,4,4,4,4,100,,,,,,,,17,0,0.282186,-0.292725,0.676514,0.614014,0.78761,-0.618662,0.033692,-73.236076,-51.827705,44.192215,,,
1629975498,35,0,4261.538574,4282.563965,4206.666504,4196.922852,4241.538574,0,1,15,,,,0,4,4,4,4,4,100,,,,,,,,,,,,,,,,,,,,,,
1629975498,36,0,4241.025879,4275.897461,4207.692383,4193.333496,4207.179688,0,1,15,,,,0,4,4,4,4,4,100,,,,,,,,18,0,0.283047,-0.292969,0.67627,0.61377,0.790051,-0.623056,0.032715,-73.568832,-51.72924,44.0797,,,
1629975498,37,0,4207.179688,4271.282227,4206.153809,4186.153809,4197.436035,0,1,15,,,,0,4,4,4,4,4,100,,,,,,,,,,,,,,,,,,,,,,
1629975498,38,0,4181.538574,4276.922852,4207.692383,4186.666504,4172.820313,0,1,15,,,,0,4,4,4,4,4,100,,,,,,,,19,0,0.283576,-0.292969,0.67627,0.613525,0.794934,-0.626474,0.035645,-70.159767,-51.700439,44.03825,,,
1629975498,39,0,4202.05127,4283.589844,4217.436035,4190.769043,4188.717773,0,1,15,,,,0,4,4,4,4,4,100,,,,,,,,,,,,,,,,,,,,,,
1629975498,40,0,4237.436035,4284.615234,4220,4190.256348,4225.641113,0,1,15,,,,0,4,4,4,4,4,100,,,,,,,,20,0,0.283852,-0.293213,0.67627,0.613281,0.800305,-0.620615,0.029297,-67.091599,-51.734333,44.120579,,,
1629975498,41,0,4256.922852,4287.179688,4218.461426,4190.769043,4262.05127,0,1,15,,,,0,4,4,4,4,4,100,,,,,,,,,,,,,,,,,,,,,,
1629975498,42,0,4276.922852,4293.846191,4230.256348,4201.025879,4293.846191,0,1,15,,,,0,4,4,4,4,4,100,,,,,,,,21,0,0.284379,-0.293213,0.67627,0.613037,0.797375,-0.613779,0.021973,-64.270439,-51.705021,44.134857,,,
1629975498,43,0,4267.179688,4295.897461,4236.410156,4204.102539,4257.94873,0,1,15,,,,0,4,4,4,4,4,100,1,50,1,4,4,4,1,,,,,,,,,,,,,1,0,0
1629975498,44,0,4259.487305,4293.846191,4224.615234,4192.820313,4208.205078,0,1,15,,,,0,4,4,4,4,4,100,,,,,,,,22,0,0.284127,-0.293457,0.67627,0.613037,0.782238,-0.612314,0.027832,-65.380135,-51.618824,44.087894,,,
1629975498,45,0,4280,4296.922852,4221.538574,4194.871582,4229.743652,0,1,15,,,,0,4,4,4,4,4,100,,,,,,,,,,,,,,,,,,,,,,
1629975498,46,0,4252.307617,4297.94873,4234.358887,4212.820313,4265.128418,0,1,15,,,,0,4,4,4,4,4,100,,,,,,,,23,0,0.284981,-0.293701,0.676025,0.612793,0.784192,-0.626963,0.028321,-62.789932,-51.660877,44.045628,,,
1629975498,47,0,4212.307617,4292.307617,4237.436035,4221.025879,4254.871582,0,1,15,,,,0,4,4,4,4,4,100,,,,,,,,,,,,,,,,,,,,,,
1629975498,48,0,4249.230957,4291.794922,4227.179688,4210.769043,4240.512695,0,1,15,,,,0,4,4,4,4,4,100,,,,,,,,24,0,0.285308,-0.293945,0.675781,0.612793,0.808118,-0.624521,0.02295,-64.107491,-51.698727,43.947769,,,
1629975498,49,0,4276.922852,4292.820313,4221.025879,4203.077148,4231.794922,0,1,15,,,,0,4,4,4,4,4,100,,,,,,,,,,,,,,,,,,,,,,
1629975498,50,0,4243.589844,4290.769043,4221.538574,4212.820313,4231.794922,0,1,15,,,,0,4,4,4,4,4,100,,,,,,,,25,0,0.285056,-0.294189,0.675781,0.612793,0.796887,-0.634287,0.026856,-65.293297,-51.553345,43.859699,,,
1629975498,51,0,4245.641113,4290.769043,4218.974121,4211.794922,4244.615234,0,1,15,,,,0,4,4,4,4,4,100,,,,,,,,,,,,,,,,,,,,,,
1629975498,52,0,4287.179688,4294.358887,4221.538574,4197.436035,4261.538574,0,1,15,,,,0,4,4,4,4,4,100,,,,,,,,26,0,0.285436,-0.294434,0.675293,0.613037,0.784192,-0.619638,0.036133,-66.181068,-51.542133,43.900066,,,
1629975498,53,0,4301.538574,4292.307617,4229.230957,4193.846191,4285.641113,0,1,15,,,,0,4,4,4,4,4,100,,,,,,,,,,,,,,,,,,,,,,
1629975498,54,0,4258.461426,4288.717773,4226.153809,4198.461426,4248.717773,0,1,15,,,,0,4,4,4,4,4,100,,,,,,,,27,0,0.285184,-0.294678,0.675293,0.613037,0.789563,-0.611826,0.032227,-63.510777,-51.591854,44.056026,,,
1629975498,55,0,4200.512695,4296.922852,4224.615234,4207.179688,4190.769043,0,1,15,,,,0,4,4,4,4,4,100,,,,,,,,,,,,,,,,,,,,,,
1629975498,56,0,4232.307617,4305.128418,4228.205078,4210.256348,4217.436035,0,1,15,,,,0,4,4,4,4,4,100,,,,,,,,28,0,0.284985,-0.294922,0.675049,0.613281,0.802258,-0.628428,0.033692,-61.107513,-51.457161,44.136578,,,
1629975499,57,0,4317.436035,4306.666504,4227.692383,4201.025879,4282.563965,0,1,15,,,,0,4,4,4,4,4,100,,,,,,,,,,,,,,,,,,,,,,
1629975499,58,0,4330.769043,4309.743652,4221.538574,4200.512695,4301.025879,0,1,15,,,,0,4,4,4,4,4,100,,,,,,,,29,0,0.285634,-0.29541,0.674561,0.613281,0.802747,-0.635752,0.035157,-58.884762,-51.515381,44.209072,,,
1629975499,59,0,4289.743652,4308.205078,4218.461426,4209.230957,4269.230957,0,1,15,,,,0,4,4,4,4,4,100,,,,,,,,,,,,,,,,,,,,1,0,0
1629975499,60,0,4270.256348,4302.563965,4222.05127,4210.256348,4235.384766,0,1,15,,,,0,4,4,4,4,4,100,,,,,,,,30,0,0.285705,-0.295898,0.674316,0.613281,0.797864,-0.642588,0.029786,-60.592834,-51.507965,44.2145,,,
1629975499,61,0,4243.589844,4306.153809,4226.153809,4214.358887,4238.461426,0,1,15,,,,0,4,4,4,4,4,100,,,,,,,,,,,,,,,,,,,,,,
1629975499,62,0,4258.974121,4314.871582,4231.794922,4221.025879,4286.153809,0,1,15,,,,0,4,4,4,4,4,100,,,,,,,,31,0,0.286028,-0.296143,0.674072,0.613281,0.777356,-0.629404,0.028809,-62.07029,-51.38166,44.279205,,,
1629975499,63,0,4346.153809,4313.333496,4235.384766,4219.487305,4305.128418,0,1,15,,,,0,4,4,4,4,4,100,,,,,,,,,,,,,,,,,,,,,,
1629975499,64,0,4344.102539,4305.128418,4232.820313,4215.897461,4270.256348,450,1,15,,,,0,4,4,4,4,4,100,,,,,,,,32,0,0.285522,-0.296631,0.674072,0.613281,0.817395,-0.625986,0.021485,-59.811073,-51.327801,44.337437,,,
1629975499,65,0,4260,4303.077148,4232.820313,4217.94873,4260,450,1,15,,,,0,4,4,4,4,4,100,,,,,,,,,,,,,,,,,,,,,,
1629975499,66,0,4260,4310.256348,4231.794922,4214.871582,4261.538574,16237,1,15,,,,0,4,4,4,4,4,100,,,,,,,,33,0,0.285591,-0.297119,0.673828,0.613281,0.818372,-0.627451,0.018067,-61.366703,-51.159695,44.270214,,,
1629975499,67,0,4325.128418,4311.794922,4223.589844,4205.128418,4252.820313,450,1,15,,,,0,4,4,4,4,4,100,,,,,,,,,,,,,,,,,,,,,,
1629975499,68,0,4322.563965,4302.05127,4225.641113,4208.205078,4262.563965,16222,1,15,,,,0,4,4,4,4,4,100,,,,,,,,34,0,0.285336,-0.297363,0.673828,0.613281,0.808606,-0.638682,0.038087,-62.886398,-51.068214,44.209713,,,
1629975499,69,0,4259.487305,4305.641113,4241.025879,4222.563965,4262.05127,450,1,15,,,,0,4,4,4,4,4,100,,,,,,,,,,,,,,,,,,,,,,
1629975499,70,0,4245.641113,4317.94873,4243.589844,4222.05127,4238.974121,16204,1,15,,,,0,4,4,4,4,4,100,,,,,,,,35,0,0.285352,-0.297852,0.673828,0.613037,0.80763,-0.636728,0.03418,-60.48576,-51.0457,44.21508,,,
1629975499,71,0,4314.358887,4316.410156,4237.94873,4209.743652,4272.820313,450,1,15,,,,0,4,4,4,4,4,100,,,,,,,,,,,,,,,,,,,,,,
1629975499,72,0,4364.615234,4314.871582,4240.512695,4210.769043,4347.179688,450,1,15,,,,0,4,4,4,4,4,100,,,,,,,,36,0,0.285418,-0.29834,0.673584,0.613037,0.801282,-0.625986,0.038087,-58.504627,-51.085251,44.160095,,,
1629975499,73,0,4327.179688,4321.538574,4246.153809,4219.487305,4325.128418,16211,1,15,,,,0,4,4,4,4,4,100,,,,,,,,,,,,,,,,,,,,,,
1629975499,74,0,4275.384766,4321.538574,4245.128418,4212.820313,4231.794922,450,1,15,,,,0,4,4,4,4,4,100,,,,,,,,37,0,0.285163,-0.298584,0.673584,0.613037,0.799817,-0.628428,0.047852,-56.601978,-51.061031,44.050793,,,
1629975499,75,0,4271.794922,4308.205078,4237.436035,4197.94873,4210.769043,16219,1,15,,,,0,4,4,4,4,4,100,,,,,,,,,,,,,,,,,,,,1,0,0
1629975499,76,0,4295.384766,4298.461426,4229.230957,4201.025879,4255.897461,450,1,15,,,,0,4,4,4,4,4,100,,,,,,,,38,0,0.284907,-0.298828,0.673584,0.613037,0.791516,-0.62501,0.042481,-58.418701,-51.039234,44.012234,,,
1629975499,77,0,4303.589844,4301.025879,4232.307617,4213.846191,4271.794922,450,1,15,,,,0,4,4,4,4,4,100,,,,,,,,,,,,,,,,,,,,,,
1629975499,78,0,4301.025879,4305.641113,4241.025879,4207.692383,4260,450,1,15,,,,0,4,4,4,4,4,100,,,,,,,,39,0,0.285228,-0.299072,0.67334,0.613037,0.797375,-0.627939,0.039551,-60.053753,-51.079433,44.156979,,,
1629975499,79,0,4295.897461,4305.128418,4234.871582,4190.256348,4254.871582,16219,1,15,,,,0,4,4,4,4,4,100,,,,,,,,,,,,,,,,,,,,,,
1629975499,80,0,4277.94873,4301.538574,4224.615234,4188.205078,4262.05127,450,1,15,,,,0,4,4,4,4,4,100,,,,,,,,40,0,0.284971,-0.299316,0.67334,0.613037,0.799817,-0.629892,0.04004,-57.996189,-51.055798,44.047985,,,
1629975499,81,0,4292.820313,4301.538574,4223.077148,4197.94873,4270.769043,450,1,15,,,,0,4,4,4,4,4,100,,,,,,,,,,,,,,,,,,,,,,
1629975499,82,0,4336.410156,4298.974121,4216.410156,4195.897461,4261.025879,450,1,15,,,,0,4,4,4,4,4,100,,,,,,,,41,0,0.28524,-0.299561,0.67334,0.612793,0.791028,-0.617685,0.041016,-56.144386,-51.154152,44.189156,,,
1629975499,83,0,4324.102539,4290.769043,4205.641113,4185.641113,4243.077148,16219,1,15,,,,0,4,4,4,4,4,100,,,,,,,,,,,,,,,,,,,,,,
1629975499,84,0,4259.487305,4288.205078,4207.179688,4189.230957,4222.563965,450,1,15,,,,0,4,4,4,4,4,100,,,,,,,,42,0,0.284983,-0.299805,0.67334,0.612793,0.791516,-0.633799,0.040528,-58.066685,-51.123043,44.196579,,,
1629975499,85,0,4231.794922,4294.358887,4218.461426,4197.436035,4211.794922,450,1,15,,,,0,4,4,4,4,4,100,,,,,,,,,,,,,,,,,,,,,,
1629975499,86,0,4285.128418,4297.94873,4217.436035,4196.410156,4252.820313,450,1,15,,,,0,4,4,4,4,4,100,,,,,,,,43,0,0.284983,-0.299805,0.67334,0.612793,0.799817,-0.627451,0.039551,-61.23418,-51.010033,44.328899,,,
1629975499,87,0,4342.05127,4293.333496,4208.205078,4191.282227,4277.94873,16219,1,15,,,,0,4,4,4,4,4,100,,,,,,,,,,,,,,,,,,,,,,
1629975499,88,0,4297.436035,4297.436035,4212.307617,4193.333496,4229.230957,450,1,15,,,,0,4,4,4,4,4,100,,,,,,,,44,0,0.284983,-0.299805,0.67334,0.612793,0.791516,-0.61915,0.036622,-62.587685,-50.873703,44.38216,,,
1629975499,89,1,4303.717773,4298.012695,4215.44873,4195.384766,4237.628418,450,1,15,,,,0,4,4,4,4,4,100,,,,,,,,,,,,,,,,,,,,,,
1629975499,90,1,4310,4298.589844,4218.589844,4197.436035,4246.025879,450,1,15,,,,0,4,4,4,4,4,100,,,,,,,,45,1,0,-0.299744,0.673401,0.612793,0.791882,-0.624765,0,0,0,0,,,
1629975499,91,1,4316.282227,4299.166504,4221.730957,4199.487305,4254.422852,450,1,15,,,,0,4,4,4,4,4,100,,,,,,,,,,,,,,,,,,,,1,0,0
1629975499,92,1,4322.563965,4299.743652,4224.871582,4201.538574,4262.820313,450,1,15,,,,0,4,4,4,4,4,100,,,,,,,,46,1,0,-0.299683,0.673462,0.612793,0.792248,-0.630381,0,0,0,0,,,
1629975499,93,1,4328.846191,4300.320313,4228.012695,4203.589844,4271.217773,450,1,15,,,,0,4,4,4,4,4,100,,,,,,,,,,,,,,,,,,,,,,
1629975499,94,1,4335.128418,4300.897461,4231.153809,4205.641113,4279.615234,450,1,15,,,,0,4,4,4,4,4,100,,,,,,,,47,1,0,-0.299622,0.673523,0.612793,0.792615,-0.635996,0,0,0,0,,,
1629975499,95,1,4341.410156,4301.474121,4234.294922,4207.692383,4288.012695,450,1,15,,,,0,4,4,4,4,4,100,,,,,,,,,,,,,,,,,,,,,,
1629975499,96,0,4347.692383,4302.05127,4237.436035,4209.743652,4296.410156,450,1,15,,,,0,4,4,4,4,4,100,,,,,,,,48,0,0.284663,-0.299561,0.673584,0.612793,0.792981,-0.641611,0.045899,-63.86565,-50.930454,44.370281,,,
1629975499,97,0,4305.641113,4296.410156,4229.743652,4217.436035,4225.128418,450,1,15,,,,0,4,4,4,4,4,100,,,,,,,,,,,,,,,,,,,,,,
1629975499,98,0,4258.461426,4292.307617,4211.794922,4216.922852,4218.974121,450,1,15,,,,0,4,4,4,4,4,100,,,,,,,,49,0,0.284137,-0.299561,0.673584,0.613037,0.795911,-0.630869,0.041993,-65.075638,-50.921715,44.359592,,,
1629975499,99,0,4307.692383,4291.282227,4206.666504,4205.128418,4276.922852,16219,1,15,,,,0,4,4,4,4,4,100,,,,,,,,,,,,,,,,,,,,,,
1629975499,100,0,4355.897461,4295.384766,4216.922852,4194.358887,4307.179688,450,1,15,,,,0,4,4,4,4,4,100,,,,,,,,50,0,0.284137,-0.299561,0.673584,0.613037,0.793957,-0.633799,0.03711,-66.284256,-51.033482,44.469601,,,
1629975499,101,0,4332.307617,4304.102539,4225.641113,4203.077148,4291.794922,450,1,15,,,,0,4,4,4,4,4,100,,,,,,,,,,,,,,,,,,,,,,
1629975499,102,0,4303.077148,4303.077148,4218.974121,4214.358887,4249.230957,450,1,15,,,,0,4,4,4,4,4,100,,,,,,,,51,0,0.283815,-0.299316,0.673828,0.613037,0.786633,-0.63331,0.039551,-67.192566,-51.074253,44.448978,,,
1629975499,103,0,4289.230957,4294.358887,4206.666504,4209.230957,4227.179688,16219,1,15,,,,0,4,4,4,4,4,100,,,,,,,,,,,,,,,,,,,,,,
1629975499,104,0,4281.538574,4290.769043,4207.692383,4201.025879,4241.025879,450,1,15,,,,0,4,4,4,4,4,100,,,,,,,,52,0,0.283545,-0.299072,0.673828,0.613281,0.786633,-0.646983,0.045899,-68.010048,-51.051136,44.310787,,,
1629975499,105,0,4303.589844,4290.769043,4211.282227,4201.538574,4251.282227,450,1,15,,,,0,4,4,4,4,4,100,,,,,,,,,,,,,,,,,,,,,,
1629975499,106,0,4334.871582,4290.256348,4206.153809,4201.025879,4243.589844,450,1,15,,,,0,4,4,4,4,4,100,,,,,,,,53,0,0.283222,-0.298828,0.674072,0.613281,0.779309,-0.642588,0.05127,-68.805595,-51.090141,44.425674,,,
1629975499,107,0,4311.794922,4292.307617,4205.641113,4203.077148,4247.692383,16219,1,15,,,,0,4,4,4,4,4,100,0.972656,50,1,4,4,4,1,,,,,,,,,,,,,1,0,0
1629975499,108,0,4286.666504,4294.871582,4214.871582,4214.871582,4270.256348,450,1,15,,,,0,4,4,4,4,4,100,,,,,,,,54,0,0.282898,-0.298584,0.674316,0.613281,0.791028,-0.63624,0.05127,-69.461769,-51.065434,44.529076,,,
1629975499,109,0,4315.897461,4288.205078,4214.358887,4211.282227,4276.922852,450,1,15,,,,0,4,4,4,4,4,100,,,,,,,,,,,,,,,,,,,,,,
1629975499,110,0,4329.230957,4277.94873,4200,4193.333496,4235.897461,450,1,15,,,,0,4,4,4,4,4,100,,,,,,,,55,0,0.282626,-0.29834,0.674316,0.613525,0.786633,-0.649912,0.038575,-70.112144,-51.103012,44.442688,,,
1629975499,111,0,4309.743652,4276.410156,4195.384766,4191.282227,4224.102539,16219,1,15,,,,0,4,4,4,4,4,100,,,,,,,,,,,,,,,,,,,,,,
1629975499,112,0,4319.487305,4278.461426,4201.538574,4196.922852,4294.358887,450,1,15,,,,0,4,4,4,4,4,100,,,,,,,,56,0,0.282301,-0.298096,0.674561,0.613525,0.781262,-0.631846,0.032227,-70.518036,-51.0172,44.424759,,,
1629975499,113,0,4323.077148,4271.794922,4198.974121,4188.717773,4305.128418,450,1,15,,,,0,4,4,4,4,4,100,,,,,,,,,,,,,,,,,,,,,,
1629975499,114,0,4286.666504,4270.769043,4193.333496,4183.077148,4204.102539,450,1,15,,,,0,4,4,4,4,4,100,,,,,,,,57,0,0.282558,-0.297852,0.674561,0.613525,0.78175,-0.65333,0.032715,-70.883339,-50.939972,44.528248,,,
1629975499,115,0,4284.615234,4276.410156,4203.077148,4192.307617,4173.333496,16219,1,15,,,,0,4,4,4,4,4,100,,,,,,,,,,,,,,,,,,,,,,
1629975499,116,0,4317.436035,4273.846191,4212.307617,4197.436035,4271.794922,450,1,15,,,,0,4,4,4,4,4,100,,,,,,,,58,0,0.281701,-0.297607,0.674805,0.61377,0.775402,-0.637217,0.033692,-71.331741,-50.870464,44.621391,,,
1629975499,117,0,4300,4272.820313,4207.179688,4193.333496,4300.512695,450,1,15,,,,0,4,4,4,4,4,100,,,,,,,,,,,,,,,,,,,,,,
1629975499,118,0,4269.230957,4276.410156,4199.487305,4188.205078,4222.05127,450,1,15,,,,0,4,4,4,4,4,100,,,,,,,,59,0,0.282216,-0.297119,0.674805,0.61377,0.786145,-0.654307,0.036622,-71.675484,-50.807911,44.465958,,,
1629975499,119,0,4301.538574,4269.230957,4193.333496,4189.230957,4197.436035,16219,1,15,,,,0,4,4,4,4,4,100,,,,,,,,,,,,,,,,,,,,,,
1629975499,120,0,4345.641113,4256.922852,4190.769043,4192.307617,4233.846191,450,1,15,,,,0,4,4,4,4,4,100,,,,,,,,60,0,0.281889,-0.296875,0.675049,0.61377,0.783215,-0.655283,0.026368,-72.104492,-50.990871,44.326069,,,
1629975499,121,0,4327.692383,4258.461426,4190.769043,4189.230957,4252.307617,450,1,15,,,,0,4,4,4,4,4,100,,,,,,,,,,,,,,,,,,,,,,
1629975499,122,0,4290.256348,4274.358887,4194.871582,4192.307617,4244.102539,450,1,15,,,,0,4,4,4,4,4,100,,,,,,,,61,0,0.28077,-0.296875,0.675293,0.614014,0.791516,-0.647471,0.027344,-69.129532,-51.12429,44.20649,,,
1629975499,123,0,4289.743652,4277.436035,4204.615234,4200.512695,4225.128418,16219,1,15,,,,0,4,4,4,4,4,100,,,,,,,,,,,,,,,,,,,,1,0,0
1629975499,124,0,4315.384766,4263.077148,4202.05127,4197.436035,4249.743652,450,1,15,,,,0,4,4,4,4,4,100,,,,,,,,62,0,0.280236,-0.296875,0.675293,0.614258,0.780774,-0.655283,0.042969,-69.932762,-51.096165,44.391624,,,
1629975499,125,0,4326.666504,4265.128418,4199.487305,4193.333496,4272.307617,450,1,15,,,,0,4,4,4,4,4,100,,,,,,,,,,,,,,,,,,,,,,
1629975499,126,0,4305.128418,4270.769043,4201.538574,4192.820313,4216.922852,450,1,15,,,,0,4,4,4,4,4,100,,,,,,,,63,0,0.279959,-0.296631,0.675293,0.614502,0.777356,-0.646006,0.027832,-70.476219,-51.130672,44.438614,,,
1629975499,127,0,4301.025879,4261.538574,4191.282227,4187.692383,4218.974121,232,1,15,,,,0,4,4,4,4,4,100,,,,,,,,,,,,,,,,,,,,,,
1629975499,0,0,4338.974121,4267.179688,4190.256348,4187.179688,4305.641113,450,1,15,,,,0,4,4,4,4,4,100,,,,,,,,0,0,0.279959,-0.296631,0.675293,0.614502,0.776379,-0.640146,0.032715,-67.376411,-51.341171,44.480904,,,
1629975499,1,0,4324.102539,4275.897461,4196.410156,4192.820313,4259.487305,450,1,15,,,,0,4,4,4,4,4,100,,,,,,,,,,,,,,,,,,,,,,
1629975499,2,0,4248.205078,4258.974121,4185.128418,4193.333496,4150.769043,16229,1,15,,,,0,4,4,4,4,4,100,,,,,,,,1,0,0.279681,-0.296387,0.675293,0.614746,0.777356,-0.651377,0.03125,-68.175507,-51.291359,44.459152,,,
1629975499,3,0,4252.820313,4248.717773,4173.846191,4184.615234,4203.077148,450,1,15,,,,0,4,4,4,4,4,100,,,,,,,,,,,,,,,,,,,,,,
1629975499,4,0,4321.538574,4260,4183.077148,4177.94873,4279.487305,16222,1,15,,,,0,4,4,4,4,4,100,,,,,,,,2,0,0.278812,-0.296143,0.675537,0.61499,0.778332,-0.65333,0.026856,-65.305771,-51.306347,44.439571,,,
1629975499,5,0,4317.436035,4265.128418,4188.205078,4177.94873,4245.641113,450,1,15,,,,0,4,4,4,4,4,100,,,,,,,,,,,,,,,,,,,,,,
1629975499,6,0,4295.897461,4266.153809,4178.461426,4178.461426,4221.538574,16195,1,15,,,,0,4,4,4,4,4,100,,,,,,,,3,0,0.278533,-0.295898,0.675537,0.615234,0.766125,-0.65626,0.036133,-62.723007,-51.499279,44.48177,,,
1629975499,7,0,4328.717773,4263.077148,4185.641113,4179.487305,4238.974121,450,1,15,,,,0,4,4,4,4,4,100,,,,,,,,,,,,,,,,,,,,,,
1629975499,8,0,4308.205078,4250.256348,4198.974121,4178.974121,4219.487305,450,1,15,,,,0,4,4,4,4,4,100,,,,,,,,4,0,0.277919,-0.29541,0.675781,0.615479,0.781262,-0.649424,0.034668,-60.398521,-51.553288,44.579559,,,
1629975499,9,0,4275.897461,4249.743652,4189.743652,4172.820313,4220.512695,16201,1,15,,,,0,4,4,4,4,4,100,,,,,,,,,,,,,,,,,,,,,,
1629975499,10,0,4305.641113,4263.077148,4184.102539,4178.461426,4247.179688,450,1,15,,,,0,4,4,4,4,4,100,,,,,,,,5,0,0.277896,-0.294922,0.675781,0.615723,0.77882,-0.656748,0.034668,-58.246666,-51.422451,44.547939,,,
1629975499,11,0,4291.794922,4266.666504,4195.897461,4192.307617,4215.384766,16221,1,15,,,,0,4,4,4,4,4,100,,,,,,,,,,,,,,,,,,,,1,0,0
1629975499,12,0,4291.794922,4261.538574,4199.487305,4193.846191,4222.05127,450,1,15,,,,0,4,4,4,4,4,100,,,,,,,,6,0,0.277019,-0.294678,0.676025,0.615967,0.771008,-0.651865,0.035645,-56.310001,-51.484142,44.459667,,,
1629975499,13,0,4345.128418,4261.025879,4192.307617,4190.256348,4274.358887,450,1,15,,,,0,4,4,4,4,4,100,,,,,,,,,,,,,,,,,,,,,,
1629975499,14,0,4296.922852,4257.94873,4188.205078,4186.666504,4219.487305,450,1,15,,,,0,4,4,4,4,4,100,,,,,,,,7,0,0.276138,-0.294434,0.67627,0.616211,0.779309,-0.645518,0.042969,-58.275551,-51.719109,44.440037,,,
1629975499,15,0,4253.846191,4251.794922,4185.641113,4182.05127,4172.307617,16221,1,15,,,,0,4,4,4,4,4,100,,,,,,,,,,,,,,,,,,,,,,
1629975499,16,0,4344.615234,4250.256348,4180.512695,4180,4271.282227,0,1,15,,,,0,4,4,4,4,4,100,,,,,,,,8,0,0.276399,-0.294189,0.67627,0.616211,0.792004,-0.654307,0.020508,-60.044548,-51.751137,44.362556,,,
1629975499,17,0,4373.846191,4252.820313,4176.410156,4175.897461,4317.436035,0,1,15,,,,0,4,4,4,4,4,100,,,,,,,,,,,,,,,,,,,,,,
1629975499,18,0,4271.282227,4255.384766,4175.897461,4159.487305,4212.307617,0,1,15,,,,0,4,4,4,4,4,100,,,,,,,,9,0,0.275229,-0.293701,0.676514,0.616699,0.760266,-0.652354,0.043458,-61.636642,-51.779961,44.233006,,,
1629975499,19,0,4221.538574,4252.307617,4181.025879,4155.384766,4169.230957,0,1,15,,,,0,4,4,4,4,4,100,,,,,,,,,,,,,,,,,,,,,,
1629975499,20,0,4271.794922,4251.794922,4186.666504,4172.307617,4213.846191,0,1,15,,,,0,4,4,4,4,4,100,,,,,,,,10,0,0.274341,-0.293457,0.676758,0.616943,0.764172,-0.652354,0.04004,-62.949902,-51.805901,44.176228,,,
1629975499,21,0,4334.871582,4250.256348,4176.922852,4173.846191,4238.461426,0,1,15,,,,0,4,4,4,4,4,100,,,,,,,,,,,,,,,,,,,,,,
1629975499,22,0,4326.153809,4243.077148,4165.641113,4160,4237.94873,0,1,15,,,,0,4,4,4,4,4,100,,,,,,,,11,0,0.274313,-0.292969,0.676758,0.617188,0.771984,-0.662608,0.031739,-64.371094,-51.709618,44.184944,,,
1629975499,23,0,4264.615234,4244.615234,4171.282227,4158.461426,4204.615234,0,1,15,,,,0,4,4,4,4,4,100,,,,,,,,,,,,,,,,,,,,,,
1629975499,24,0,4268.205078,4254.358887,4171.794922,4158.974121,4190.769043,0,1,15,,,,0,4,4,4,4,4,100,,,,,,,,12,0,0.273421,-0.292725,0.677002,0.617432,0.759777,-0.666026,0.044434,-65.530533,-51.742592,44.192783,,,
1629975499,25,0,4329.230957,4256.410156,4166.666504,4156.922852,4237.94873,0,1,15,,,,0,4,4,4,4,4,100,,,,,,,,,,,,,,,,,,,,,,
1629975499,26,0,4307.692383,4258.974121,4178.461426,4168.205078,4222.563965,0,1,15,,,,0,4,4,4,4,4,100,,,,,,,,13,0,0.272839,-0.292236,0.677002,0.61792,0.768566,-0.650889,0.035157,-62.925297,-51.77227,44.199844,,,
1629975499,27,0,4222.05127,4265.128418,4190.256348,4182.563965,4146.666504,0,1,15,,,,0,4,4,4,4,4,100,,,,,,,,,,,,,,,,,,,,1,0,0
1629975499,28,0,4246.153809,4259.487305,4185.128418,4178.974121,4197.436035,0,1,15,,,,0,4,4,4,4,4,100,,,,,,,,14,0,0.272809,-0.291748,0.677002,0.618164,0.78468,-0.652842,0.02295,-60.520763,-51.798981,44.206196,,,
1629975499,29,0,4351.282227,4245.641113,4168.717773,4164.102539,4294.871582,0,1,15,,,,0,4,4,4,4,4,100,,,,,,,,,,,,,,,,,,,,,,
1629975499,30,0,4345.128418,4235.384766,4158.974121,4149.230957,4236.922852,0,1,15,,,,0,4,4,4,4,4,100,,,,,,,,15,0,0.273421,-0.292725,0.677002,0.617432,0.759777,-0.666026,0.044434,-62.005424,-51.703388,44.331543,,,
1629975499,31,0,4255.384766,4234.358887,4168.717773,4147.179688,4146.153809,0,1,15,,,,0,4,4,4,4,4,100,,,,,,,,,,,,,,,,,,,,,,
1629975499,32,0,4227.692383,4243.589844,4177.436035,4166.666504,4174.871582,0,1,15,,,,0,4,4,4,4,4,100,,,,,,,,16,0,0.272809,-0.291748,0.677002,0.618164,0.78468,-0.652842,0.02295,-59.692883,-51.736984,44.324726,,,
1629975499,33,0,4276.410156,4250.256348,4174.358887,4178.974121,4247.692383,0,1,15,,,,0,4,4,4,4,4,100,,,,,,,,,,,,,,,,,,,,,,
1629975499,34,0,4322.05127,4247.692383,4168.205078,4165.128418,4261.025879,0,1,15,,,,0,4,4,4,4,4,100,,,,,,,,17,0,0.272516,-0.291504,0.677002,0.618408,0.779309,-0.667491,0.019532,-57.671406,-51.707409,44.378407,,,
1629975499,35,0,4304.102539,4249.230957,4168.205078,4158.974121,4207.692383,0,1,15,,,,0,4,4,4,4,4,100,,,,,,,,,,,,,,,,,,,,,,
1629975499,36,0,4256.410156,4254.358887,4168.205078,4166.666504,4170.256348,0,1,15,,,,0,4,4,4,4,4,100,,,,,,,,18,0,0.271877,-0.291016,0.677246,0.618652,0.776867,-0.666026,0.036622,-59.441002,-51.800419,44.486534,,,
1629975499,37,0,4287.692383,4256.410156,4168.205078,4164.102539,4230.256348,0,1,15,,,,0,4,4,4,4,4,100,,,,,,,,,,,,,,,,,,,,,,
1629975499,38,0,4342.05127,4258.974121,4173.846191,4163.589844,4269.230957,0,1,15,,,,0,4,4,4,4,4,100,,,,,,,,19,0,0.270972,-0.290771,0.67749,0.618896,0.759289,-0.659678,0.033692,-61.033638,-51.884129,44.464218,,,
1629975499,39,0,4286.153809,4253.333496,4171.282227,4165.128418,4191.794922,0,1,15,,,,0,4,4,4,4,4,100,,,,,,,,,,,,,,,,,,,,,,
1629975499,40,0,4237.436035,4251.282227,4171.282227,4160,4150.769043,0,1,15,,,,0,4,4,4,4,4,100,,,,,,,,20,0,0.270327,-0.290283,0.677734,0.619141,0.762219,-0.67042,0.033204,-62.46701,-52.019283,44.563763,,,
1629975499,41,0,4288.205078,4263.589844,4183.077148,4169.230957,4217.94873,0,1,15,,,,0,4,4,4,4,4,100,,,,,,,,,,,,,,,,,,,,,,
1629975499,42,0,4303.077148,4262.563965,4177.94873,4175.384766,4233.846191,0,1,15,,,,0,4,4,4,4,4,100,,,,,,,,21,0,0.269679,-0.289795,0.677979,0.619385,0.770031,-0.680674,0.042481,-63.757046,-52.081108,44.653355,,,
1629975499,43,0,4263.589844,4249.743652,4165.641113,4159.487305,4171.794922,0,1,15,,,,0,4,4,4,4,4,100,0.972656,50,1,4,4,4,1,,,,,,,,,,,,,1,0,0
1629975499,44,0,4294.358887,4251.282227,4171.282227,4153.333496,4182.563965,0,1,15,,,,0,4,4,4,4,4,100,,,,,,,,22,0,0.268464,-0.289307,0.678223,0.619873,0.765148,-0.665537,0.039551,-61.329155,-52.01712,44.674171,,,
1629975499,45,0,4332.820313,4254.358887,4179.487305,4168.205078,4249.743652,0,1,15,,,,0,4,4,4,4,4,100,,,,,,,,,,,,,,,,,,,,,,
1629975499,46,0,4277.94873,4243.077148,4174.871582,4171.794922,4231.282227,0,1,15,,,,0,4,4,4,4,4,100,,,,,,,,23,0,0.267809,-0.288818,0.678467,0.620117,0.773938,-0.663096,0.03418,-62.732975,-52.019344,44.513462,,,
1629975499,47,0,4239.487305,4234.871582,4167.179688,4161.025879,4166.153809,0,1,15,,,,0,4,4,4,4,4,100,,,,,,,,,,,,,,,,,,,,,,
1629975499,48,0,4292.820313,4234.358887,4166.153809,4161.538574,4200,0,1,15,,,,0,4,4,4,4,4,100,,,,,,,,24,0,0.26715,-0.28833,0.678711,0.620361,0.754406,-0.678721,0.035645,-60.407494,-52.081161,44.608082,,,
1629975499,49,0,4322.05127,4233.846191,4162.563965,4161.538574,4245.641113,0,1,15,,,,0,4,4,4,4,4,100,,,,,,,,,,,,,,,,,,,,,,
1629975499,50,0,4260.512695,4236.410156,4154.358887,4156.410156,4184.615234,0,1,15,,,,0,4,4,4,4,4,100,,,,,,,,25,0,0.265919,-0.287842,0.678955,0.62085,0.756359,-0.668467,0.042969,-62.023109,-52.076981,44.633427,,,
1629975499,51,0,4231.282227,4242.05127,4152.307617,4160.512695,4162.05127,0,1,15,,,,0,4,4,4,4,4,100,,,,,,,,,,,,,,,,,,,,,,
1629975499,52,0,4294.358887,4236.410156,4149.230957,4162.05127,4222.05127,0,1,15,,,,0,4,4,4,4,4,100,,,,,,,,26,0,0.265253,-0.287354,0.679199,0.621094,0.750011,-0.687999,0.039063,-63.357536,-52.013405,44.416977,,,
1629975499,53,0,4324.615234,4224.615234,4156.922852,4161.538574,4236.410156,0,1,15,,,,0,4,4,4,4,4,100,,,,,,,,,,,,,,,,,,,,,,
1629975499,54,0,4268.205078,4221.025879,4171.282227,4168.205078,4204.615234,0,1,15,,,,0,4,4,4,4,4,100,,,,,,,,27,0,0.264274,-0.286621,0.679443,0.621582,0.755383,-0.695323,0.03711,-64.558517,-52.075817,44.521244,,,
1629975499,55,0,4256.922852,4223.589844,4170.769043,4174.871582,4221.025879,0,1,15,,,,0,4,4,4,4,4,100,,,,,,,,,,,,,,,,,,,,,,
1629975499,56,0,4335.384766,4229.230957,4170.256348,4178.974121,4261.025879,0,1,15,,,,0,4,4,4,4,4,100,,,,,,,,28,0,0.2636,-0.286133,0.679688,0.621826,0.765148,-0.687022,0.038575,-65.57959,-52.012356,44.495457,,,
1629975500,57,0,4346.666504,4227.692383,4170.256348,4172.820313,4226.666504,0,1,15,,,,0,4,4,4,4,4,100,,,,,,,,,,,,,,,,,,,,,,
1629975500,58,0,4242.563965,4217.436035,4164.615234,4160,4173.846191,0,1,15,,,,0,4,4,4,4,4,100,,,,,,,,29,0,0.262923,-0.285645,0.679932,0.62207,0.753918,-0.685557,0.036133,-66.49855,-52.134689,44.412434,,,
1629975500,59,0,4221.538574,4216.410156,4161.025879,4153.333496,4206.666504,0,1,15,,,,0,4,4,4,4,4,100,,,,,,,,,,,,,,,,,,,,1,0,0
1629975500,60,0,4320.512695,4222.05127,4161.025879,4157.94873,4253.846191,0,1,15,,,,0,4,4,4,4,4,100,,,,,,,,30,0,0.261294,-0.284912,0.68042,0.622559,0.755383,-0.6963,0.036133,-67.445244,-52.304604,44.576973,,,
1629975500,61,0,4331.794922,4225.641113,4167.179688,4163.077148,4224.102539,0,1,15,,,,0,4,4,4,4,4,100,,,,,,,,,,,,,,,,,,,,,,
1629975500,62,0,4261.538574,4225.641113,4172.307617,4160,4163.077148,0,1,15,,,,0,4,4,4,4,4,100,,,,,,,,31,0,0.260874,-0.28418,0.680664,0.622803,0.737804,-0.695323,0.028321,-68.237457,-52.397709,44.545612,,,
1629975500,63,0,4253.846191,4224.615234,4167.179688,4155.897461,4154.358887,0,1,15,,,,0,4,4,4,4,4,100,,,,,,,,,,,,,,,,,,,,,,
1629975500,64,0,4257.436035,4216.410156,4151.282227,4151.282227,4190.256348,450,1,15,,,,0,4,4,4,4,4,100,,,,,,,,32,0,0.260184,-0.283691,0.680908,0.623047,0.749035,-0.698253,0.033204,-68.950447,-52.481506,44.756649,,,
1629975500,65,0,4237.436035,4204.102539,4140,4147.692383,4205.128418,450,1,15,,,,0,4,4,4,4,4,100,,,,,,,,,,,,,,,,,,,,,,
1629975500,66,0,4227.692383,4201.025879,4145.641113,4147.179688,4157.94873,16214,1,15,,,,0,4,4,4,4,4,100,,,,,,,,33,0,0.25885,-0.283203,0.681396,0.623291,0.748058,-0.692882,0.045899,-69.532326,-52.497108,44.587692,,,
1629975500,67,0,4192.820313,4200.512695,4143.077148,4143.589844,4097.94873,450,1,15,,,,0,4,4,4,4,4,100,,,,,,,,,,,,,,,,,,,,,,
1629975500,68,0,4176.410156,4196.922852,4134.871582,4141.025879,4089.743652,16219,1,15,,,,0,4,4,4,4,4,100,,,,,,,,34,0,0.258152,-0.282715,0.681641,0.623535,0.743175,-0.689952,0.048341,-66.467087,-52.690598,44.674892,,,
1629975500,69,0,4232.307617,4198.974121,4144.102539,4142.563965,4137.94873,450,1,15,,,,0,4,4,4,4,4,100,,,,,,,,,,,,,,,,,,,,,,
1629975500,70,0,4256.922852,4198.461426,4144.102539,4133.846191,4184.615234,16191,1,15,,,,0,4,4,4,4,4,100,,,,,,,,35,0,0.257126,-0.281982,0.681885,0.624023,0.732921,-0.704601,0.050294,-67.297302,-52.745102,44.873001,,,
1629975500,71,0,4208.717773,4195.897461,4137.94873,4128.717773,4166.666504,450,1,15,,,,0,4,4,4,4,4,100,,,,,,,,,,,,,,,,,,,,,,
1629975500,72,0,4187.692383,4204.102539,4149.230957,4140.512695,4128.205078,450,1,15,,,,0,4,4,4,4,4,100,,,,,,,,36,0,0.25642,-0.281494,0.682129,0.624268,0.720226,-0.715343,0.03711,-68.104309,-52.853977,44.871853,,,
1629975500,73,0,4218.974121,4207.692383,4147.692383,4145.128418,4131.282227,16197,1,15,,,,0,4,4,4,4,4,100,,,,,,,,,,,,,,,,,,,,,,
1629975500,74,0,4235.384766,4194.358887,4133.333496,4141.538574,4146.153809,450,1,15,,,,0,4,4,4,4,4,100,,,,,,,,37,0,0.255113,-0.281006,0.682373,0.624756,0.73048,-0.724132,0.042969,-65.181877,-53.011776,44.930634,,,
1629975500,75,0,4207.692383,4182.05127,4132.820313,4139.487305,4152.307617,16212,1,15,,,,0,4,4,4,4,4,100,,,,,,,,,,,,,,,,,,,,1,0,0
1629975500,76,0,4182.05127,4190.256348,4135.897461,4140,4148.717773,450,1,15,,,,0,4,4,4,4,4,100,,,,,,,,38,0,0.254012,-0.280273,0.682861,0.625,0.721202,-0.720714,0.032715,-66.14061,-53.153797,44.863907,,,
1629975500,77,0,4206.666504,4200.512695,4137.436035,4141.538574,4132.820313,450,1,15,,,,0,4,4,4,4,4,100,,,,,,,,,,,,,,,,,,,,,,
1629975500,78,0,4228.205078,4194.871582,4141.025879,4138.974121,4125.641113,450,1,15,,,,0,4,4,4,4,4,100,,,,,,,,39,0,0.252689,-0.279785,0.683105,0.625488,0.733898,-0.716808,0.045899,-67.063286,-53.161983,44.923485,,,
1629975500,79,0,4217.436035,4189.230957,4142.563965,4137.436035,4132.820313,16212,1,15,,,,0,4,4,4,4,4,100,,,,,,,,,,,,,,,,,,,,,,
1629975500,80,0,4207.179688,4192.307617,4143.589844,4138.461426,4138.461426,450,1,15,,,,0,4,4,4,4,4,100,,,,,,,,40,0,0.251963,-0.279297,0.68335,0.625732,0.729992,-0.732921,0.042481,-67.953506,-53.229168,44.977104,,,
1629975500,81,0,4203.589844,4197.436035,4150.256348,4143.077148,4156.410156,450,1,15,,,,0,4,4,4,4,4,100,,,,,,,,,,,,,,,,,,,,,,
1629975500,82,0,4208.717773,4198.974121,4155.897461,4149.230957,4162.563965,450,1,15,,,,0,4,4,4,4,4,100,,,,,,,,41,0,0.251234,-0.278809,0.683594,0.625977,0.722667,-0.729992,0.044434,-65.105972,-53.289635,45.025364,,,
1629975500,83,0,4211.794922,4190.769043,4148.205078,4147.692383,4120,16212,1,15,,,,0,4,4,4,4,4,100,,,,,,,,,,,,,,,,,,,,,,
1629975500,84,0,4206.666504,4183.589844,4136.922852,4140.512695,4100,450,1,15,,,,0,4,4,4,4,4,100,,,,,,,,42,0,0.250502,-0.27832,0.683838,0.626221,0.712413,-0.72755,0.048829,-66.191925,-53.40387,45.068794,,,
1629975500,85,0,4209.230957,4188.205078,4137.436035,4131.794922,4149.230957,450,1,15,,,,0,4,4,4,4,4,100,,,,,,,,,,,,,,,,,,,,,,
1629975500,86,0,4211.282227,4191.794922,4137.436035,4124.615234,4163.077148,450,1,15,,,,0,4,4,4,4,4,100,,,,,,,,43,0,0.249096,-0.277832,0.684326,0.626465,0.714855,-0.741711,0.038575,-67.109467,-53.566498,44.928436,,,
1629975500,87,0,4182.05127,4184.102539,4126.153809,4118.974121,4104.102539,16212,1,15,,,,0,4,4,4,4,4,100,,,,,,,,,,,,,,,,,,,,,,
1629975500,88,0,4196.410156,4179.487305,4118.974121,4115.384766,4105.128418,450,1,15,,,,0,4,4,4,4,4,100,,,,,,,,44,0,0.247737,-0.277344,0.68457,0.626953,0.714855,-0.750011,0.044923,-64.286522,-53.593231,44.742298,,,
1629975500,89,0,4261.025879,4189.743652,4129.743652,4120,4165.641113,450,1,15,,,,0,4,4,4,4,4,100,,,,,,,,,,,,,,,,,,,,,,
1629975500,90,0,4219.487305,4190.256348,4134.358887,4122.563965,4135.897461,450,1,15,,,,0,4,4,4,4,4,100,,,,,,,,45,0,0.247609,-0.276855,0.684814,0.626953,0.712902,-0.736339,0.043946,-61.805683,-53.61729,44.694405,,,
1629975500,91,0,4140,4177.436035,4126.666504,4122.05127,4094.358887,16212,1,15,,,,0,4,4,4,4,4,100,,,,,,,,,,,,,,,,,,,,1,0,0
1629975500,92,0,4208.717773,4181.025879,4131.282227,4131.282227,4151.282227,450,1,15,,,,0,4,4,4,4,4,100,,,,,,,,46,0,0.246238,-0.276367,0.685059,0.627441,0.720714,-0.755383,0.030762,-59.632744,-53.638943,44.531673,,,
1629975500,93,0,4270.769043,4187.179688,4133.846191,4142.05127,4155.384766,450,1,15,,,,0,4,4,4,4,4,100,,,,,,,,,,,,,,,,,,,,,,
1629975500,94,0,4173.333496,4173.846191,4125.641113,4141.025879,4072.307617,450,1,15,,,,0,4,4,4,4,4,100,,,,,,,,47,0,0.2448,-0.275879,0.685547,0.627686,0.698253,-0.755871,0.045899,-57.557468,-53.778065,44.624474,,,
1629975500,95,0,4139.487305,4168.205078,4116.410156,4130.256348,4090.769287,16212,1,15,,,,0,4,4,4,4,4,100,,,,,,,,,,,,,,,,,,,,,,
1629975500,96,0,4236.410156,4177.94873,4112.820313,4119.487305,4172.307617,450,1,15,,,,0,4,4,4,4,4,100,,,,,,,,48,0,0.247609,-0.276855,0.684814,0.626953,0.712902,-0.736339,0.043946,-59.398273,-53.843456,44.468731,,,
1629975500,97,0,4240,4177.94873,4121.538574,4116.922852,4156.410156,450,1,15,,,,0,4,4,4,4,4,100,,,,,,,,,,,,,,,,,,,,,,
1629975500,98,0,4171.282227,4173.333496,4127.692383,4116.410156,4108.205078,450,1,15,,,,0,4,4,4,4,4,100,,,,,,,,49,0,0.2448,-0.275879,0.685547,0.627686,0.698253,-0.755871,0.045899,-57.346443,-53.962124,44.567825,,,
1629975500,99,0,4169.743652,4181.538574,4129.743652,4124.615234,4103.077148,16212,1,15,,,,0,4,4,4,4,4,100,,,,,,,,,,,,,,,,,,,,,,
1629975500,100,0,4185.641113,4180.512695,4133.333496,4134.871582,4114.358887,450,1,15,,,,0,4,4,4,4,4,100,,,,,,,,50,0,0.244666,-0.275391,0.685791,0.627686,0.706065,-0.742199,0.055665,-59.148537,-54.068924,44.657013,,,
1629975500,101,0,4188.717773,4171.282227,4131.282227,4126.153809,4132.307617,450,1,15,,,,0,4,4,4,4,4,100,,,,,,,,,,,,,,,,,,,,,,
1629975500,102,0,4217.436035,4177.436035,4127.692383,4114.358887,4137.94873,450,1,15,,,,0,4,4,4,4,4,100,,,,,,,,51,0,0.243628,-0.275146,0.686035,0.62793,0.706065,-0.745129,0.049805,-57.121681,-54.165047,44.677464,,,
1629975500,103,0,4213.846191,4182.05127,4128.717773,4116.922852,4112.307617,16212,1,15,,,,0,4,4,4,4,4,100,,,,,,,,,,,,,,,,,,,,,,
1629975500,104,0,4175.384766,4175.897461,4127.692383,4123.077148,4087.692383,450,1,15,,,,0,4,4,4,4,4,100,,,,,,,,52,0,0.242228,-0.274658,0.686279,0.628418,0.700694,-0.746105,0.056641,-59.006065,-54.131924,44.576237,,,
1629975500,105,0,4186.666504,4175.897461,4123.077148,4122.05127,4113.846191,450,1,15,,,,0,4,4,4,4,4,100,,,,,,,,,,,,,,,,,,,,,,
1629975500,106,0,4227.179688,4181.538574,4120.512695,4113.846191,4165.128418,450,1,15,,,,0,4,4,4,4,4,100,,,,,,,,53,0,0.241177,-0.274414,0.686523,0.628662,0.694347,-0.750011,0.052735,-60.702011,-54.221745,44.604767,,,
1629975500,107,0,4213.333496,4174.358887,4122.563965,4104.615234,4152.820313,16212,1,15,,,,0,4,4,4,4,4,100,0.972656,50,1,4,4,4,1,,,,,,,,,,,,,1,0,0
1629975500,108,0,4155.384766,4161.538574,4113.846191,4097.436035,4075.384521,450,1,15,,,,0,4,4,4,4,4,100,,,,,,,,54,0,0.241096,-0.273926,0.686523,0.628906,0.694835,-0.767102,0.055177,-62.168545,-54.422215,44.630444,,,
1629975500,109,0,4154.358887,4153.846191,4097.94873,4089.230713,4064.102539,450,1,15,,,,0,4,4,4,4,4,100,,,,,,,,,,,,,,,,,,,,,,
1629975500,110,0,4193.846191,4154.871582,4103.589844,4090.769287,4109.230957,450,1,15,,,,0,4,4,4,4,4,100,,,,,,,,55,0,0.239398,-0.273682,0.686768,0.629395,0.690929,-0.749035,0.06006,-59.839687,-54.363377,44.474106,,,
1629975500,111,0,4181.538574,4167.692383,4114.358887,4102.05127,4096.922852,16212,1,15,,,,0,4,4,4,4,4,100,,,,,,,,,,,,,,,,,,,,,,
1629975500,112,0,4176.922852,4176.922852,4116.410156,4108.205078,4099.487305,450,1,15,,,,0,4,4,4,4,4,100,,,,,,,,56,0,0.239034,-0.273438,0.686768,0.629639,0.698253,-0.759777,0.049317,-57.743717,-54.430054,44.273586,,,
1629975500,113,0,4215.897461,4171.794922,4122.05127,4109.743652,4144.102539,450,1,15,,,,0,4,4,4,4,4,100,,,,,,,,,,,,,,,,,,,,,,
1629975500,114,0,4220.512695,4168.717773,4124.102539,4116.410156,4157.436035,450,1,15,,,,0,4,4,4,4,4,100,,,,,,,,57,0,0.238949,-0.272949,0.686768,0.629883,0.686534,-0.758801,0.044923,-55.857346,-54.490063,44.332378,,,
1629975500,115,0,4197.436035,4177.94873,4121.538574,4120.512695,4141.025879,16212,1,15,,,,0,4,4,4,4,4,100,,,,,,,,,,,,,,,,,,,,,,
1629975500,116,0,4189.743652,4176.922852,4118.974121,4112.820313,4122.563965,450,1,15,,,,0,4,4,4,4,4,100,,,,,,,,58,0,0.238584,-0.272705,0.686768,0.630127,0.690929,-0.762707,0.049805,-57.808346,-54.544067,44.385292,,,
1629975500,117,0,4185.128418,4169.743652,4124.102539,4111.794922,4116.922852,450,1,15,,,,0,4,4,4,4,4,100,,,,,,,,,,,,,,,,,,,,,,
1629975500,118,0,4183.077148,4170.256348,4124.102539,4118.974121,4105.641113,450,1,15,,,,0,4,4,4,4,4,100,,,,,,,,59,0,0.237938,-0.272705,0.686768,0.630371,0.682139,-0.775891,0.047364,-59.743694,-54.652493,44.492733,,,
1629975500,119,0,4176.410156,4168.205078,4115.897461,4114.871582,4086.153809,16212,1,15,,,,0,4,4,4,4,4,100,,,,,,,,,,,,,,,,,,,,,,
1629975500,120,0,4168.717773,4166.153809,4116.410156,4108.205078,4102.05127,450,1,15,,,,0,4,4,4,4,4,100,,,,,,,,60,0,0.237571,-0.272461,0.686768,0.630615,0.687022,-0.760266,0.055665,-57.776955,-54.869701,44.52961,,,
1629975500,121,0,4188.717773,4158.974121,4114.871582,4110.769043,4147.692383,450,1,15,,,,0,4,4,4,4,4,100,,,,,,,,,,,,,,,,,,,,,,
1629975500,122,0,4212.820313,4150.256348,4107.692383,4114.871582,4148.205078,450,1,15,,,,0,4,4,4,4,4,100,,,,,,,,61,0,0.236864,-0.272461,0.687012,0.630615,0.699229,-0.751965,0.05127,-59.535995,-55.005375,44.562801,,,
1629975500,123,0,4221.538574,4156.922852,4109.743652,4109.743652,4118.974121,16212,1,15,,,,0,4,4,4,4,4,100,,,,,,,,,,,,,,,,,,,,1,0,0
1629975500,124,0,4220,4166.153809,4115.897461,4107.692383,4118.461426,450,1,15,,,,0,4,4,4,4,4,100,,,,,,,,62,0,0.236213,-0.272461,0.687012,0.630859,0.684581,-0.750988,0.039551,-57.530209,-54.948036,44.592674,,,
1629975500,125,0,4201.025879,4167.692383,4119.487305,4115.384766,4123.589844,450,1,15,,,,0,4,4,4,4,4,100,,,,,,,,,,,,,,,,,,,,,,
1629975500,126,0,4181.025879,4170.256348,4122.05127,4119.487305,4117.94873,450,1,15,,,,0,4,4,4,4,4,100,,,,,,,,63,0,0.236213,-0.272461,0.687012,0.630859,0.69337,-0.749523,0.050782,-55.844635,-55.016064,44.559746,,,
1629975500,127,0,4194.358887,4173.846191,4130.769043,4126.153809,4113.333496,232,1,15,,,,0,4,4,4,4,4,100,,,,,,,,,,,,,,,,,,,,,,
1629975500,0,0,4219.487305,4173.333496,4140,4138.461426,4130.256348,450,1,15,,,,0,4,4,4,4,4,100,,,,,,,,0,0,0.23556,-0.272461,0.687012,0.631104,0.692393,-0.747082,0.039063,-54.14817,-55.077286,44.649738,,,
1629975500,1,0,4216.410156,4170.769043,4138.461426,4136.922852,4152.820313,450,1,15,,,,0,4,4,4,4,4,100,,,,,,,,,,,,,,,,,,,,,,
1629975500,2,0,4177.94873,4162.05127,4122.563965,4119.487305,4123.077148,16222,1,15,,,,0,4,4,4,4,4,100,,,,,,,,1,0,0.235187,-0.272217,0.687012,0.631348,0.684092,-0.759777,0.042481,-56.210274,-55.072571,44.730732,,,
1629975500,3,0,4154.358887,4156.410156,4111.794922,4108.205078,4084.615479,450,1,15,,,,0,4,4,4,4,4,100,,,,,,,,,,,,,,,,,,,,,,
1629975500,4,0,4181.538574,4165.641113,4121.538574,4112.820313,4108.717773,16217,1,15,,,,0,4,4,4,4,4,100,,,,,,,,2,0,0.234814,-0.271973,0.687012,0.631592,0.674327,-0.769055,0.048829,-58.006351,-55.008511,44.743813,,,
1629975500,5,0,4212.307617,4165.128418,4121.538574,4114.358887,4145.641113,450,1,15,,,,0,4,4,4,4,4,100,,,,,,,,,,,,,,,,,,,,,,
1629975500,6,0,4193.846191,4150.769043,4105.641113,4107.692383,4137.436035,16199,1,15,,,,0,4,4,4,4,4,100,,,,,,,,3,0,0.234156,-0.271973,0.687012,0.631836,0.68751,-0.750011,0.040528,-59.622822,-54.950859,44.635952,,,
1629975500,7,0,4166.666504,4159.487305,4114.358887,4115.384766,4117.94873,450,1,15,,,,0,4,4,4,4,4,100,,,,,,,,,,,,,,,,,,,,,,
1629975500,8,0,4183.077148,4170.769043,4122.563965,4122.563965,4111.794922,450,1,15,,,,0,4,4,4,4,4,100,,,,,,,,4,0,0.23378,-0.271729,0.687012,0.63208,0.680674,-0.769543,0.041505,-61.197277,-54.898972,44.658508,,,
1629975500,9,0,4211.282227,4154.871582,4104.102539,4113.333496,4112.820313,16205,1,15,,,,0,4,4,4,4,4,100,,,,,,,,,,,,,,,,,,,,,,
1629975500,10,0,4197.436035,4142.05127,4102.563965,4109.743652,4125.128418,450,1,15,,,,0,4,4,4,4,4,100,,,,,,,,5,0,0.233404,-0.271484,0.687012,0.632324,0.682628,-0.767102,0.045411,-59.02536,-54.912086,44.67881,,,
1629975500,11,0,4173.846191,4152.307617,4125.641113,4113.333496,4129.743652,16224,1,15,,,,0,4,4,4,4,4,100,,,,,,,,,,,,,,,,,,,,1,0,0
1629975500,12,0,4189.743652,4164.102539,4133.846191,4114.871582,4114.358887,450,1,15,,,,0,4,4,4,4,4,100,,,,,,,,6,0,0.234404,-0.27124,0.686768,0.632324,0.683116,-0.763195,0.049805,-60.599747,-54.923893,44.697083,,,
1629975500,13,0,4222.05127,4164.102539,4123.077148,4115.897461,4123.589844,450,1,15,,,,0,4,4,4,4,4,100,,,,,,,,,,,,,,,,,,,,,,
1629975500,14,0,4222.05127,4162.563965,4118.974121,4118.974121,4130.256348,450,1,15,,,,0,4,4,4,4,4,100,,,,,,,,7,0,0.233309,-0.270996,0.687012,0.632568,0.689464,-0.77882,0.055665,-62.076508,-54.934517,44.773342,,,
1629975500,15,0,4180,4166.666504,4123.589844,4122.05127,4101.025879,16224,1,15,,,,0,4,4,4,4,4,100,,,,,,,,,,,,,,,,,,,,,,
1629975500,16,0,4156.410156,4173.333496,4121.025879,4119.487305,4109.230957,0,1,15,,,,0,4,4,4,4,4,100,,,,,,,,8,0,0.233649,-0.270752,0.686768,0.632813,0.687999,-0.778332,0.036133,-63.405594,-54.94408,44.662529,,,
1629975500,17,0,4212.307617,4178.974121,4118.461426,4114.871582,4172.820313,0,1,15,,,,0,4,4,4,4,4,100,,,,,,,,,,,,,,,,,,,,,,
1629975500,18,0,4265.128418,4173.846191,4125.128418,4112.820313,4192.307617,0,1,15,,,,0,4,4,4,4,4,100,,,,,,,,9,0,0.23327,-0.270508,0.686768,0.633057,0.691417,-0.787121,0.043458,-64.661583,-54.892868,44.742245,,,
1629975500,19,0,4226.153809,4167.692383,4130.256348,4120,4133.333496,0,1,15,,,,0,4,4,4,4,4,100,,,,,,,,,,,,,,,,,,,,,,
1629975500,20,0,4185.641113,4173.846191,4135.897461,4129.230957,4111.282227,0,1,15,,,,0,4,4,4,4,4,100,,,,,,,,10,0,0.23289,-0.270264,0.686768,0.633301,0.675303,-0.779309,0.042481,-62.262871,-54.906597,44.694355,,,
1629975500,21,0,4223.077148,4177.94873,4141.538574,4123.589844,4153.333496,0,1,15,,,,0,4,4,4,4,4,100,,,,,,,,,,,,,,,,,,,,,,
1629975500,22,0,4265.128418,4177.436035,4139.487305,4118.461426,4188.717773,0,1,15,,,,0,4,4,4,4,4,100,,,,,,,,11,0,0.232509,-0.27002,0.686768,0.633545,0.673838,-0.780285,0.045899,-63.513504,-54.978764,44.770889,,,
1629975500,23,0,4263.077148,4185.128418,4133.333496,4129.230957,4192.820313,0,1,15,,,,0,4,4,4,4,4,100,,,,,,,,,,,,,,,,,,,,,,
1629975500,24,0,4232.820313,4186.153809,4133.846191,4136.410156,4158.974121,0,1,15,,,,0,4,4,4,4,4,100,,,,,,,,12,0,0.232509,-0.27002,0.686768,0.633545,0.684581,-0.78468,0.038575,-64.698891,-54.983902,44.720139,,,
1629975500,25,0,4198.974121,4179.487305,4141.538574,4131.794922,4123.589844,0,1,15,,,,0,4,4,4,4,4,100,,,,,,,,,,,,,,,,,,,,,,
1629975500,26,0,4199.487305,4182.05127,4140,4125.641113,4128.717773,0,1,15,,,,0,4,4,4,4,4,100,,,,,,,,13,0,0.232127,-0.269775,0.686768,0.633789,0.680186,-0.782238,0.042969,-62.117001,-55.167973,44.734276,,,
1629975500,27,0,4252.307617,4185.128418,4134.358887,4118.974121,4177.94873,0,1,15,,,,0,4,4,4,4,4,100,,,,,,,,,,,,,,,,,,,,1,0,0
1629975500,28,0,4274.871582,4177.436035,4137.94873,4116.922852,4203.589844,0,1,15,,,,0,4,4,4,4,4,100,,,,,,,,14,0,0.232793,-0.269775,0.686768,0.633545,0.69337,-0.793957,0.036133,-63.50185,-55.273819,44.687183,,,
1629975500,29,0,4220,4169.743652,4137.436035,4113.333496,4154.871582,0,1,15,,,,0,4,4,4,4,4,100,,,,,,,,,,,,,,,,,,,,,,
1629975500,30,0,4196.922852,4169.743652,4132.820313,4109.230957,4127.179688,0,1,15,,,,0,4,4,4,4,4,100,,,,,,,,15,0,0.232793,-0.269775,0.686768,0.633545,0.691417,-0.782238,0.041993,-64.6884,-55.369083,44.584988,,,
1629975500,31,0,4224.102539,4173.846191,4135.897461,4116.922852,4168.717773,0,1,15,,,,0,4,4,4,4,4,100,,,,,,,,,,,,,,,,,,,,,,
1629975500,32,0,4229.743652,4183.589844,4145.128418,4133.846191,4180.512695,0,1,15,,,,0,4,4,4,4,4,100,,,,,,,,16,0,0.232509,-0.27002,0.686768,0.633545,0.67628,-0.798352,0.03418,-65.636665,-55.215557,44.493011,,,
1629975500,33,0,4240,4190.769043,4150.256348,4137.436035,4162.05127,0,1,15,,,,0,4,4,4,4,4,100,,,,,,,,,,,,,,,,,,,,,,
1629975500,34,0,4257.94873,4184.615234,4146.666504,4127.692383,4175.897461,0,1,15,,,,0,4,4,4,4,4,100,,,,,,,,17,0,0.23289,-0.270264,0.686768,0.633301,0.680674,-0.778332,0.037598,-66.549919,-55.197014,44.470047,,,
1629975500,35,0,4238.974121,4174.871582,4138.974121,4120.512695,4166.153809,0,1,15,,,,0,4,4,4,4,4,100,,,,,,,,,,,,,,,,,,,,,,
1629975500,36,0,4207.692383,4176.410156,4135.384766,4121.025879,4130.769043,0,1,15,,,,0,4,4,4,4,4,100,,,,,,,,18,0,0.232793,-0.269775,0.686768,0.633545,0.691417,-0.782238,0.041993,-63.842743,-55.180328,44.628826,,,
1629975500,37,0,4213.333496,4181.025879,4135.897461,4129.230957,4158.974121,0,1,15,,,,0,4,4,4,4,4,100,,,,,,,,,,,,,,,,,,,,,,
1629975500,38,0,4241.025879,4176.410156,4134.358887,4132.820313,4187.692383,0,1,15,,,,0,4,4,4,4,4,100,,,,,,,,19,0,0.23289,-0.270264,0.686768,0.633301,0.680674,-0.778332,0.037598,-64.935387,-55.165306,44.592281,,,
1629975500,39,0,4216.410156,4170.256348,4130.769043,4123.077148,4138.461426,0,1,15,,,,0,4,4,4,4,4,100,,,,,,,,,,,,,,,,,,,,,,
1629975500,40,0,4190.256348,4172.820313,4133.846191,4119.487305,4134.871582,0,1,15,,,,0,4,4,4,4,4,100,,,,,,,,20,0,0.233326,-0.270508,0.686523,0.633301,0.682628,-0.772961,0.043458,-62.389664,-55.151791,44.738834,,,
1629975500,41,0,4253.846191,4178.974121,4134.358887,4122.05127,4200,0,1,15,,,,0,4,4,4,4,4,100,,,,,,,,,,,,,,,,,,,,,,
1629975500,42,0,4279.487305,4181.538574,4132.307617,4117.94873,4183.077148,0,1,15,,,,0,4,4,4,4,4,100,,,,,,,,21,0,0.233705,-0.270752,0.686523,0.633057,0.685557,-0.772961,0.040528,-63.567802,-55.259254,44.751102,,,
1629975500,43,0,4197.436035,4181.025879,4135.897461,4118.461426,4111.282227,0,1,15,,,,0,4,4,4,4,4,100,0.972656,66.666664,3,4,4,4,1,,,,,,,,,,,,,1,0,0
1629975500,44,0,4171.282227,4176.922852,4136.922852,4119.487305,4132.307617,0,1,15,,,,0,4,4,4,4,4,100,,,,,,,,22,0,0.233856,-0.27124,0.686279,0.633057,0.682628,-0.779797,0.043946,-64.628128,-55.236343,44.702332,,,
1629975500,45,0,4237.94873,4176.922852,4132.820313,4117.94873,4191.282227,0,1,15,,,,0,4,4,4,4,4,100,,,,,,,,,,,,,,,,,,,,,,
1629975500,46,0,4253.846191,4178.461426,4142.563965,4126.153809,4172.307617,0,1,15,,,,0,4,4,4,4,4,100,,,,,,,,23,0,0.234289,-0.271484,0.686035,0.633057,0.694835,-0.767102,0.033204,-65.642235,-55.215725,44.778065,,,
1629975500,47,0,4217.436035,4177.436035,4160,4132.307617,4124.102539,0,1,15,,,,0,4,4,4,4,4,100,,,,,,,,,,,,,,,,,,,,,,
1629975500,48,0,4195.897461,4181.025879,4150.769043,4122.563965,4122.563965,0,1,15,,,,0,4,4,4,4,4,100,,,,,,,,24,0,0.23515,-0.271973,0.685547,0.633057,0.687999,-0.76759,0.041505,-66.674568,-55.137348,44.726597,,,
1629975500,49,0,4226.153809,4181.025879,4128.717773,4111.794922,4195.384766,0,1,15,,,,0,4,4,4,4,4,100,,,,,,,,,,,,,,,,,,,,,,
1629975500,50,0,4279.487305,4174.871582,4129.743652,4115.384766,4236.410156,0,1,15,,,,0,4,4,4,4,4,100,,,,,,,,25,0,0.235297,-0.272461,0.685303,0.633057,0.684581,-0.771984,0.037598,-67.543846,-55.186443,44.919537,,,
1629975500,51,0,4276.410156,4179.487305,4141.025879,4122.563965,4162.563965,0,1,15,,,,0,4,4,4,4,4,100,,,,,,,,,,,,,,,,,,,,,,
1629975500,52,0,4290.256348,4192.820313,4145.128418,4123.589844,4147.179688,0,1,15,,,,0,4,4,4,4,4,100,,,,,,,,26,0,0.236151,-0.272949,0.684814,0.633057,0.686534,-0.765637,0.045899,-64.67746,-55.110996,44.85392,,,
1629975500,53,0,4330.769043,4193.846191,4151.794922,4125.641113,4249.230957,0,1,15,,,,0,4,4,4,4,4,100,,,,,,,,,,,,,,,,,,,,,,
1629975500,54,0,4303.077148,4192.307617,4163.589844,4130.256348,4275.384766,0,1,15,,,,0,4,4,4,4,4,100,,,,,,,,27,0,0.236947,-0.273438,0.68457,0.632813,0.689952,-0.777844,0.026856,-65.746452,-54.98328,44.854679,,,
1629975500,55,0,4278.974121,4200,4171.282227,4136.922852,4183.077148,0,1,15,,,,0,4,4,4,4,4,100,,,,,,,,,,,,,,,,,,,,,,
1629975500,56,0,4303.077148,4196.410156,4161.538574,4133.333496,4142.05127,0,1,15,,,,0,4,4,4,4,4,100,,,,,,,,28,0,0.236806,-0.27417,0.684326,0.632813,0.677256,-0.772473,0.034668,-66.887985,-54.987965,44.795547,,,
1629975500,57,0,4278.461426,4186.153809,4146.666504,4118.461426,4201.025879,0,1,15,,,,0,4,4,4,4,4,100,,,,,,,,,,,,,,,,,,,,,,
1629975501,58,0,4240.512695,4188.205078,4144.102539,4113.333496,4224.615234,0,1,15,,,,0,4,4,4,4,4,100,,,,,,,,29,0,0.237649,-0.274658,0.683838,0.632813,0.695323,-0.779309,0.038575,-67.676109,-54.992184,44.742332,,,
1629975501,59,0,4252.307617,4192.307617,4149.230957,4117.436035,4151.282227,0,1,15,,,,0,4,4,4,4,4,100,,,,,,,,,,,,,,,,,,,,1,0,0
1629975501,60,0,4262.05127,4196.410156,4152.307617,4119.487305,4129.743652,0,1,15,,,,0,4,4,4,4,4,100,,,,,,,,30,0,0.238153,-0.275391,0.683594,0.632568,0.691417,-0.78175,0.033204,-68.445236,-54.995979,44.75425,,,
1629975501,61,0,4251.794922,4201.025879,4147.692383,4118.974121,4205.641113,0,1,15,,,,0,4,4,4,4,4,100,,,,,,,,,,,,,,,,,,,,,,
1629975501,62,0,4248.717773,4197.94873,4151.282227,4123.589844,4201.538574,0,1,15,,,,0,4,4,4,4,4,100,,,,,,,,31,0,0.239351,-0.276123,0.683105,0.632324,0.683604,-0.758801,0.026856,-69.137444,-54.939579,44.705162,,,
1629975501,63,0,4256.922852,4198.974121,4165.128418,4128.205078,4141.025879,0,1,15,,,,0,4,4,4,4,4,100,,,,,,,,,,,,,,,,,,,,,,
1629975501,64,0,4278.461426,4203.589844,4163.077148,4118.974121,4161.025879,450,1,15,,,,0,4,4,4,4,4,100,,,,,,,,32,0,0.239484,-0.276611,0.682861,0.632324,0.692393,-0.769055,0.029297,-66.171516,-54.888821,44.660984,,,
1629975501,65,0,4301.538574,4199.487305,4158.974121,4121.025879,4232.820313,450,1,15,,,,0,4,4,4,4,4,100,,,,,,,,,,,,,,,,,,,,,,
1629975501,66,0,4298.461426,4196.922852,4171.794922,4142.05127,4248.717773,16233,1,15,,,,0,4,4,4,4,4,100,,,,,,,,33,0,0.239977,-0.277344,0.682617,0.63208,0.709484,-0.761242,0.033692,-63.502178,-54.843136,44.621223,,,
1629975501,67,0,4292.820313,4204.102539,4175.384766,4147.692383,4189.230957,450,1,15,,,,0,4,4,4,4,4,100,,,,,,,,,,,,,,,,,,,,,,
1629975501,68,0,4288.717773,4205.641113,4155.384766,4132.820313,4151.282227,16237,1,15,,,,0,4,4,4,4,4,100,,,,,,,,34,0,0.241158,-0.278076,0.682129,0.631836,0.697765,-0.757336,0.036133,-61.039959,-54.861835,44.585438,,,
1629975501,69,0,4300.512695,4195.897461,4144.102539,4119.487305,4198.461426,450,1,15,,,,0,4,4,4,4,4,100,,,,,,,,,,,,,,,,,,,,,,
1629975501,70,0,4317.436035,4197.94873,4161.025879,4128.717773,4248.717773,16194,1,15,,,,0,4,4,4,4,4,100,,,,,,,,35,0,0.241642,-0.278809,0.681885,0.631592,0.691905,-0.750988,0.044923,-62.532516,-54.759033,44.55323,,,
1629975501,71,0,4301.025879,4208.205078,4172.820313,4142.05127,4244.615234,450,1,15,,,,0,4,4,4,4,4,100,,,,,,,,,,,,,,,,,,,,,,
1629975501,72,0,4309.230957,4203.589844,4164.102539,4136.410156,4236.922852,450,1,15,,,,0,4,4,4,4,4,100,,,,,,,,36,0,0.242808,-0.279541,0.681396,0.631348,0.705089,-0.749523,0.030762,-63.875816,-54.546883,44.404613,,,
1629975501,73,0,4336.922852,4189.230957,4157.436035,4128.717773,4219.487305,16205,1,15,,,,0,4,4,4,4,4,100,,,,,,,,,,,,,,,,,,,,,,
1629975501,74,0,4321.025879,4183.589844,4158.461426,4130.769043,4204.615234,450,1,15,,,,0,4,4,4,4,4,100,,,,,,,,37,0,0.243966,-0.280273,0.680908,0.631104,0.715831,-0.740734,0.033204,-64.965157,-54.655025,44.51012,,,
1629975501,75,0,4290.769043,4190.256348,4162.05127,4132.820313,4238.974121,16208,1,15,,,,0,4,4,4,4,4,100,,,,,,,,,,,,,,,,,,,,1,0,0
1629975501,76,0,4298.974121,4206.153809,4168.205078,4140,4258.461426,450,1,15,,,,0,4,4,4,4,4,100,,,,,,,,38,0,0.244834,-0.28125,0.68042,0.630859,0.711437,-0.73341,0.027832,-66.065193,-54.513088,44.66489,,,
1629975501,77,0,4301.025879,4212.307617,4173.846191,4149.743652,4227.179688,450,1,15,,,,0,4,4,4,4,4,100,,,,,,,,,,,,,,,,,,,,,,
1629975501,78,0,4280.512695,4200.512695,4169.743652,4146.666504,4209.743652,450,1,15,,,,0,4,4,4,4,4,100,,,,,,,,39,0,0.245974,-0.281982,0.679932,0.630615,0.712902,-0.739269,0.024903,-63.406487,-54.325531,44.624741,,,
1629975501,79,0,4291.282227,4199.487305,4156.922852,4135.897461,4235.897461,16208,1,15,,,,0,4,4,4,4,4,100,,,,,,,,,,,,,,,,,,,,,,
