title:test0826, start timestamp:1629975491.659043, stop timestamp:1629975591.327375, headset type:INSIGHT, headset serial:A2D2052F, headset firmware:932, channels:43, sampling rate:eeg_128;mot_64;mc_8, samples:12523     , version:2.1, 
Timestamp,EEG.Counter,EEG.Interpolated,EEG.AF3,EEG.T7,EEG.Pz,EEG.T8,EEG.AF4,EEG.RawCq,EEG.Battery,EEG.BatteryPercent,MarkerIndex,MarkerType,MarkerValueInt,EEG.MarkerHardware,CQ.AF3,CQ.T7,CQ.Pz,CQ.T8,CQ.AF4,CQ.Overall,EQ.SampleRateQuality,EQ.OVERALL,EQ.AF3,EQ.T7,EQ.Pz,EQ.T8,EQ.AF4,MOT.CounterMems,MOT.InterpolatedMems,MOT.Q0,MOT.Q1,MOT.Q2,MOT.Q3,MOT.AccX,MOT.AccY,MOT.AccZ,MOT.MagX,MOT.MagY,MOT.MagZ,MC.Action,MC.ActionPower,MC.IsActive
1629975491.659043,79.000000,0.000000,4200.000000,4241.025879,4173.846191,4234.871582,4220.000000,16214.000000,1.000000,15.000000,,,,0.000000,4.000000,4.000000,4.000000,4.000000,4.000000,100.000000,,,,,,,,,,,,,,,,,,,,,,
1629975491.666758,80.000000,0.000000,4251.794922,4238.461426,4161.025879,4229.230957,4191.282227,450.000000,1.000000,15.000000,,,,0.000000,4.000000,4.000000,4.000000,4.000000,4.000000,100.000000,,,,,,,,40.000000,0.000000,0.192013,-0.233398,0.690674,0.656982,0.604501,-0.824720,0.013184,-63.172020,-60.299122,47.096760,,,
1629975491.674472,81.000000,0.000000,4220.512695,4230.256348,4156.410156,4204.615234,4176.410156,450.000000,1.000000,15.000000,,,,0.000000,4.000000,4.000000,4.000000,4.000000,4.000000,100.000000,,,,,,,,,,,,,,,,,,,,,,
1629975491.682287,82.000000,0.000000,4174.871582,4234.871582,4172.820313,4215.384766,4153.846191,450.000000,1.000000,15.000000,,,,0.000000,4.000000,4.000000,4.000000,4.000000,4.000000,100.000000,,,,,,,,41.000000,0.000000,0.192309,-0.233154,0.690674,0.656982,0.605966,-0.826673,0.015625,-64.152290,-60.250744,47.052681,,,
1629975491.690002,83.000000,0.000000,4203.589844,4246.666504,4184.615234,4227.692383,4166.666504,16214.000000,1.000000,15.000000,,,,0.000000,4.000000,4.000000,4.000000,4.000000,4.000000,100.000000,,,,,,,,,,,,,,,,,,,,,,
1629975491.697816,84.000000,0.000000,4250.256348,4248.205078,4183.589844,4212.820313,4212.820313,450.000000,1.000000,15.000000,,,,0.000000,4.000000,4.000000,4.000000,4.000000,4.000000,100.000000,,,,,,,,42.000000,0.000000,0.192013,-0.233398,0.690674,0.656982,0.603525,-0.836927,0.016602,-65.034538,-60.326839,47.072826,,,
1629975491.705530,85.000000,0.000000,4280.512695,4243.589844,4166.666504,4207.692383,4246.153809,450.000000,1.000000,15.000000,,,,0.000000,4.000000,4.000000,4.000000,4.000000,4.000000,100.000000,,,,,,,,,,,,,,,,,,,,,,
1629975491.713345,86.000000,0.000000,4260.000000,4244.102539,4170.769043,4211.282227,4246.153809,450.000000,1.000000,15.000000,,,,0.000000,4.000000,4.000000,4.000000,4.000000,4.000000,100.000000,,,,,,,,43.000000,0.000000,0.192013,-0.233398,0.690674,0.656982,0.615244,-0.829114,0.022461,-62.837791,-60.455135,47.031143,,,
1629975491.721159,87.000000,0.000000,4228.205078,4243.589844,4174.871582,4193.846191,4206.153809,16214.000000,1.000000,15.000000,,,,0.000000,4.000000,4.000000,4.000000,4.000000,4.000000,100.000000,,,,,,,,,,,,,,,,,,,,,,
1629975491.728874,88.000000,0.000000,4215.384766,4245.641113,4158.461426,4183.077148,4178.461426,450.000000,1.000000,15.000000,,,,0.000000,4.000000,4.000000,4.000000,4.000000,4.000000,100.000000,,,,,,,,44.000000,0.000000,0.192889,-0.233398,0.690430,0.656982,0.609384,-0.815930,0.025391,-63.851486,-60.391159,47.113258,,,
1629975491.736688,89.000000,0.000000,4182.563965,4251.794922,4169.230957,4208.205078,4161.025879,450.000000,1.000000,15.000000,,,,0.000000,4.000000,4.000000,4.000000,4.000000,4.000000,100.000000,,,,,,,,,,,,,,,,,,,,,,
1629975491.744402,90.000000,0.000000,4204.102539,4250.769043,4173.333496,4228.717773,4150.769043,450.000000,1.000000,15.000000,,,,0.000000,4.000000,4.000000,4.000000,4.000000,4.000000,100.000000,,,,,,,,45.000000,0.000000,0.192055,-0.233398,0.690430,0.657227,0.602548,-0.824231,0.030274,-64.883446,-60.154133,47.187160,,,
1629975491.752116,91.000000,0.000000,4268.205078,4246.666504,4165.641113,4223.077148,4197.948730,16214.000000,1.000000,15.000000,,,,0.000000,4.000000,4.000000,4.000000,4.000000,4.000000,100.000000,,,,,,,,,,,,,,,,,,,,1.000000,0.000000,0.000000
1629975491.759931,92.000000,0.000000,4225.128418,4249.230957,4174.358887,4215.897461,4232.307617,450.000000,1.000000,15.000000,,,,0.000000,4.000000,4.000000,4.000000,4.000000,4.000000,100.000000,,,,,,,,46.000000,0.000000,0.192055,-0.233398,0.690430,0.657227,0.595224,-0.829602,0.012696,-65.812202,-60.120258,47.193859,,,
1629975491.767745,93.000000,0.000000,4207.179688,4253.333496,4178.974121,4210.256348,4209.230957,450.000000,1.000000,15.000000,,,,0.000000,4.000000,4.000000,4.000000,4.000000,4.000000,100.000000,,,,,,,,,,,,,,,,,,,,,,
1629975491.775460,94.000000,0.000000,4294.871582,4252.307617,4182.563965,4204.615234,4199.487305,450.000000,1.000000,15.000000,,,,0.000000,4.000000,4.000000,4.000000,4.000000,4.000000,100.000000,,,,,,,,47.000000,0.000000,0.191176,-0.233398,0.690674,0.657227,0.596689,-0.826185,0.018555,-63.298428,-60.209400,47.259705,,,
1629975491.783174,95.000000,0.000000,4271.794922,4247.692383,4181.025879,4207.179688,4201.538574,16214.000000,1.000000,15.000000,,,,0.000000,4.000000,4.000000,4.000000,4.000000,4.000000,100.000000,,,,,,,,,,,,,,,,,,,,,,
1629975491.790988,96.000000,0.000000,4210.769043,4245.128418,4181.538574,4214.358887,4211.794922,450.000000,1.000000,15.000000,,,,0.000000,4.000000,4.000000,4.000000,4.000000,4.000000,100.000000,,,,,,,,48.000000,0.000000,0.191176,-0.233398,0.690674,0.657227,0.602060,-0.824231,0.033204,-64.266060,-60.289627,47.259148,,,
1629975491.798703,97.000000,0.000000,4222.051270,4247.179688,4183.589844,4214.358887,4234.358887,450.000000,1.000000,15.000000,,,,0.000000,4.000000,4.000000,4.000000,4.000000,4.000000,100.000000,,,,,,,,,,,,,,,,,,,,,,
1629975491.806517,98.000000,0.000000,4221.538574,4250.769043,4175.897461,4208.205078,4225.641113,450.000000,1.000000,15.000000,,,,0.000000,4.000000,4.000000,4.000000,4.000000,4.000000,100.000000,,,,,,,,49.000000,0.000000,0.191176,-0.233398,0.690674,0.657227,0.601572,-0.818372,0.017578,-65.077110,-60.302017,47.258644,,,
1629975491.814332,99.000000,0.000000,4238.974121,4254.358887,4181.538574,4205.128418,4197.948730,16214.000000,1.000000,15.000000,,,,0.000000,4.000000,4.000000,4.000000,4.000000,4.000000,100.000000,,,,,,,,,,,,,,,,,,,,,,
1629975491.822046,100.000000,0.000000,4260.000000,4255.897461,4177.948730,4201.025879,4195.897461,450.000000,1.000000,15.000000,,,,0.000000,4.000000,4.000000,4.000000,4.000000,4.000000,100.000000,,,,,,,,50.000000,0.000000,0.191176,-0.233398,0.690674,0.657227,0.602548,-0.821790,0.020996,-62.457401,-60.313168,47.078751,,,
1629975491.829761,101.000000,0.000000,4209.743652,4255.384766,4166.666504,4192.307617,4197.948730,450.000000,1.000000,15.000000,,,,0.000000,4.000000,4.000000,4.000000,4.000000,4.000000,100.000000,,,,,,,,,,,,,,,,,,,,,,
1629975491.837475,102.000000,0.000000,4230.256348,4250.256348,4165.641113,4186.666504,4234.871582,450.000000,1.000000,15.000000,,,,0.000000,4.000000,4.000000,4.000000,4.000000,4.000000,100.000000,,,,,,,,51.000000,0.000000,0.190877,-0.233643,0.690674,0.657227,0.608896,-0.815442,0.019043,-60.279106,-60.383018,47.036472,,,
1629975491.845290,103.000000,0.000000,4293.333496,4241.538574,4153.333496,4184.615234,4267.692383,16214.000000,1.000000,15.000000,,,,0.000000,4.000000,4.000000,4.000000,4.000000,4.000000,100.000000,,,,,,,,,,,,,,,,,,,,,,
1629975491.853105,104.000000,0.000000,4237.436035,4236.922852,4161.025879,4189.743652,4209.743652,450.000000,1.000000,15.000000,,,,0.000000,4.000000,4.000000,4.000000,4.000000,4.000000,100.000000,,,,,,,,52.000000,0.000000,0.191716,-0.233643,0.690674,0.656982,0.594736,-0.817884,0.019043,-58.199009,-60.326252,46.998425,,,
1629975491.860819,105.000000,0.000000,4195.897461,4240.512695,4176.410156,4194.871582,4167.692383,450.000000,1.000000,15.000000,,,,0.000000,4.000000,4.000000,4.000000,4.000000,4.000000,100.000000,,,,,,,,,,,,,,,,,,,,,,
1629975491.868634,106.000000,0.000000,4246.666504,4246.666504,4169.230957,4188.717773,4216.922852,450.000000,1.000000,15.000000,,,,0.000000,4.000000,4.000000,4.000000,4.000000,4.000000,100.000000,,,,,,,,53.000000,0.000000,0.191716,-0.233643,0.690674,0.656982,0.611337,-0.813977,0.027344,-59.736397,-60.095718,46.904366,,,
1629975491.876348,107.000000,0.000000,4247.179688,4251.794922,4175.384766,4187.692383,4215.897461,16214.000000,1.000000,15.000000,,,,0.000000,4.000000,4.000000,4.000000,4.000000,4.000000,100.000000,1.000000,41.666668,1.000000,4.000000,4.000000,4.000000,0.000000,,,,,,,,,,,,,1.000000,0.000000,0.000000
1629975491.884162,108.000000,0.000000,4202.563965,4250.256348,4180.000000,4192.820313,4153.846191,450.000000,1.000000,15.000000,,,,0.000000,4.000000,4.000000,4.000000,4.000000,4.000000,100.000000,,,,,,,,54.000000,0.000000,0.191716,-0.233643,0.690674,0.656982,0.616709,-0.821302,0.034180,-61.060234,-60.187313,46.879528,,,
1629975491.891877,109.000000,0.000000,4235.384766,4242.563965,4175.384766,4182.051270,4215.384766,450.000000,1.000000,15.000000,,,,0.000000,4.000000,4.000000,4.000000,4.000000,4.000000,100.000000,,,,,,,,,,,,,,,,,,,,,,
1629975491.899691,110.000000,0.000000,4276.410156,4239.487305,4167.179688,4172.820313,4280.512695,450.000000,1.000000,15.000000,,,,0.000000,4.000000,4.000000,4.000000,4.000000,4.000000,100.000000,,,,,,,,55.000000,0.000000,0.191418,-0.233887,0.690674,0.656982,0.611337,-0.823255,0.020996,-58.961838,-60.209934,46.677727,,,
1629975491.907406,111.000000,0.000000,4225.128418,4235.897461,4154.358887,4173.846191,4171.282227,16214.000000,1.000000,15.000000,,,,0.000000,4.000000,4.000000,4.000000,4.000000,4.000000,100.000000,,,,,,,,,,,,,,,,,,,,,,
1629975491.915220,112.000000,0.000000,4214.358887,4235.384766,4158.974121,4173.846191,4161.538574,450.000000,1.000000,15.000000,,,,0.000000,4.000000,4.000000,4.000000,4.000000,4.000000,100.000000,,,,,,,,56.000000,0.000000,0.191418,-0.233887,0.690674,0.656982,0.593271,-0.827161,0.016602,-60.482761,-60.230293,46.795181,,,
1629975491.922935,113.000000,0.000000,4312.307617,4247.179688,4157.948730,4173.846191,4313.846191,450.000000,1.000000,15.000000,,,,0.000000,4.000000,4.000000,4.000000,4.000000,4.000000,100.000000,,,,,,,,,,,,,,,,,,,,,,
1629975491.930749,114.000000,0.000000,4331.282227,4251.282227,4152.307617,4168.717773,4299.487305,450.000000,1.000000,15.000000,,,,0.000000,4.000000,4.000000,4.000000,4.000000,4.000000,100.000000,,,,,,,,57.000000,0.000000,0.191418,-0.233887,0.690674,0.656982,0.610849,-0.818372,0.025879,-58.501930,-60.188801,46.721447,,,
1629975491.938463,115.000000,0.000000,4207.692383,4238.974121,4156.410156,4168.205078,4164.102539,16214.000000,1.000000,15.000000,,,,0.000000,4.000000,4.000000,4.000000,4.000000,4.000000,100.000000,,,,,,,,,,,,,,,,,,,,,,
1629975491.946277,116.000000,0.000000,4152.820313,4241.025879,4165.641113,4182.563965,4156.922852,450.000000,1.000000,15.000000,,,,0.000000,4.000000,4.000000,4.000000,4.000000,4.000000,100.000000,,,,,,,,58.000000,0.000000,0.190535,-0.233887,0.690918,0.656982,0.596689,-0.829602,0.027344,-56.659367,-60.211273,46.714901,,,
1629975491.953991,117.000000,0.000000,4236.922852,4254.358887,4183.077148,4179.487305,4216.410156,450.000000,1.000000,15.000000,,,,0.000000,4.000000,4.000000,4.000000,4.000000,4.000000,100.000000,,,,,,,,,,,,,,,,,,,,,,
1629975491.961706,118.000000,0.000000,4328.717773,4248.717773,4177.948730,4156.922852,4268.205078,450.000000,1.000000,15.000000,,,,0.000000,4.000000,4.000000,4.000000,4.000000,4.000000,100.000000,,,,,,,,59.000000,0.000000,0.190834,-0.233643,0.690918,0.656982,0.609873,-0.828138,0.019532,-55.060875,-60.111866,46.709011,,,
1629975491.969520,119.000000,0.000000,4301.025879,4238.461426,4176.922852,4160.000000,4259.487305,16214.000000,1.000000,15.000000,,,,0.000000,4.000000,4.000000,4.000000,4.000000,4.000000,100.000000,,,,,,,,,,,,,,,,,,,,,,
1629975491.977235,120.000000,0.000000,4186.666504,4244.102539,4189.230957,4177.436035,4160.000000,450.000000,1.000000,15.000000,,,,0.000000,4.000000,4.000000,4.000000,4.000000,4.000000,100.000000,,,,,,,,60.000000,0.000000,0.190834,-0.233643,0.690918,0.656982,0.606943,-0.834485,0.021973,-53.622231,-60.142033,46.524261,,,
1629975491.985049,121.000000,0.000000,4205.641113,4248.205078,4177.948730,4172.820313,4161.538574,450.000000,1.000000,15.000000,,,,0.000000,4.000000,4.000000,4.000000,4.000000,4.000000,100.000000,,,,,,,,,,,,,,,,,,,,,,
1629975491.992864,122.000000,0.000000,4323.589844,4251.794922,4186.153809,4174.358887,4294.358887,450.000000,1.000000,15.000000,,,,0.000000,4.000000,4.000000,4.000000,4.000000,4.000000,100.000000,,,,,,,,61.000000,0.000000,0.190535,-0.233887,0.690918,0.656982,0.596689,-0.829602,0.027344,-52.207821,-60.109364,46.597248,,,
1629975492.000578,123.000000,0.000000,4281.025879,4257.948730,4198.461426,4186.153809,4286.666504,16214.000000,1.000000,15.000000,,,,0.000000,4.000000,4.000000,4.000000,4.000000,4.000000,100.000000,,,,,,,,,,,,,,,,,,,,1.000000,0.000000,0.000000
1629975492.008292,124.000000,0.000000,4184.615234,4255.897461,4184.615234,4173.846191,4164.615234,450.000000,1.000000,15.000000,,,,0.000000,4.000000,4.000000,4.000000,4.000000,4.000000,100.000000,,,,,,,,62.000000,0.000000,0.190834,-0.233643,0.690918,0.656982,0.606943,-0.834485,0.021973,-51.054485,-60.139778,46.423676,,,
1629975492.016107,125.000000,0.000000,4302.563965,4254.358887,4176.922852,4152.307617,4210.769043,450.000000,1.000000,15.000000,,,,0.000000,4.000000,4.000000,4.000000,4.000000,4.000000,100.000000,,,,,,,,,,,,,,,,,,,,,,
1629975492.023821,126.000000,0.000000,4422.051270,4256.410156,4170.769043,4149.230957,4288.717773,450.000000,1.000000,15.000000,,,,0.000000,4.000000,4.000000,4.000000,4.000000,4.000000,100.000000,,,,,,,,63.000000,0.000000,0.189948,-0.233643,0.691162,0.656982,0.598642,-0.831556,0.014649,-53.306328,-60.047523,46.446907,,,
1629975492.031636,127.000000,0.000000,4317.436035,4260.512695,4177.948730,4156.410156,4222.051270,232.000000,1.000000,15.000000,,,,0.000000,4.000000,4.000000,4.000000,4.000000,4.000000,100.000000,,,,,,,,,,,,,,,,,,,,,,
1629975492.039350,0.000000,0.000000,4253.333496,4265.641113,4185.128418,4152.820313,4189.743652,450.000000,1.000000,15.000000,,,,0.000000,4.000000,4.000000,4.000000,4.000000,4.000000,100.000000,,,,,,,,0.000000,0.000000,0.189948,-0.233643,0.691162,0.656982,0.579599,-0.820325,0.032227,-52.043140,-59.964493,46.408001,,,
1629975492.047165,1.000000,0.000000,4340.000000,4261.538574,4171.282227,4134.358887,4238.974121,450.000000,1.000000,15.000000,,,,0.000000,4.000000,4.000000,4.000000,4.000000,4.000000,100.000000,,,,,,,,,,,,,,,,,,,,,,
1629975492.054879,2.000000,0.000000,4358.974121,4257.436035,4164.102539,4121.025879,4225.128418,16233.000000,1.000000,15.000000,,,,0.000000,4.000000,4.000000,4.000000,4.000000,4.000000,100.000000,,,,,,,,1.000000,0.000000,0.190248,-0.233398,0.691162,0.656982,0.593759,-0.830579,0.027344,-54.136299,-60.069210,46.492615,,,
1629975492.062694,3.000000,0.000000,4270.769043,4260.000000,4166.153809,4123.077148,4157.948730,450.000000,1.000000,15.000000,,,,0.000000,4.000000,4.000000,4.000000,4.000000,4.000000,100.000000,,,,,,,,,,,,,,,,,,,,,,
1629975492.070408,4.000000,0.000000,4194.871582,4257.948730,4169.230957,4124.615234,4121.025879,16236.000000,1.000000,15.000000,,,,0.000000,4.000000,4.000000,4.000000,4.000000,4.000000,100.000000,,,,,,,,2.000000,0.000000,0.189403,-0.233398,0.691162,0.657227,0.607431,-0.828138,0.032715,-52.610668,-60.043827,46.568768,,,
1629975492.078223,5.000000,0.000000,4200.000000,4250.256348,4157.436035,4120.000000,4121.025879,450.000000,1.000000,15.000000,,,,0.000000,4.000000,4.000000,4.000000,4.000000,4.000000,100.000000,,,,,,,,,,,,,,,,,,,,,,
1629975492.085937,6.000000,0.000000,4288.717773,4254.871582,4143.589844,4118.461426,4181.538574,16196.000000,1.000000,15.000000,,,,0.000000,4.000000,4.000000,4.000000,4.000000,4.000000,100.000000,,,,,,,,3.000000,0.000000,0.189991,-0.233643,0.690918,0.657227,0.610361,-0.836439,0.036133,-54.706890,-60.140610,46.577488,,,
1629975492.093751,7.000000,0.000000,4373.846191,4268.717773,4163.077148,4126.153809,4225.641113,450.000000,1.000000,15.000000,,,,0.000000,4.000000,4.000000,4.000000,4.000000,4.000000,100.000000,,,,,,,,,,,,,,,,,,,,,,
1629975492.101466,8.000000,0.000000,4350.769043,4270.769043,4175.897461,4130.769043,4217.436035,450.000000,1.000000,15.000000,,,,0.000000,4.000000,4.000000,4.000000,4.000000,4.000000,100.000000,,,,,,,,4.000000,0.000000,0.189991,-0.233643,0.690918,0.657227,0.595712,-0.838392,0.018067,-53.303646,-60.108086,46.645153,,,
1629975492.109280,9.000000,0.000000,4277.436035,4265.641113,4173.333496,4124.102539,4209.230957,16203.000000,1.000000,15.000000,,,,0.000000,4.000000,4.000000,4.000000,4.000000,4.000000,100.000000,,,,,,,,,,,,,,,,,,,,,,
1629975492.116994,10.000000,0.000000,4274.871582,4271.794922,4175.897461,4121.025879,4227.179688,450.000000,1.000000,15.000000,,,,0.000000,4.000000,4.000000,4.000000,4.000000,4.000000,100.000000,,,,,,,,5.000000,0.000000,0.189991,-0.233643,0.690918,0.657227,0.599130,-0.827649,0.025879,-52.040726,-60.138630,46.646236,,,
1629975492.124808,11.000000,0.000000,4305.641113,4276.922852,4174.871582,4127.692383,4214.358887,16209.000000,1.000000,15.000000,,,,0.000000,4.000000,4.000000,4.000000,4.000000,4.000000,100.000000,,,,,,,,,,,,,,,,,,,,1.000000,0.000000,0.000000
1629975492.132523,12.000000,0.000000,4323.077148,4270.769043,4182.563965,4130.256348,4183.589844,450.000000,1.000000,15.000000,,,,0.000000,4.000000,4.000000,4.000000,4.000000,4.000000,100.000000,,,,,,,,6.000000,0.000000,0.190291,-0.233398,0.690918,0.657227,0.600595,-0.823255,0.023438,-50.904099,-60.106304,46.707027,,,
1629975492.140337,13.000000,0.000000,4325.641113,4272.820313,4178.974121,4121.538574,4207.692383,450.000000,1.000000,15.000000,,,,0.000000,4.000000,4.000000,4.000000,4.000000,4.000000,100.000000,,,,,,,,,,,,,,,,,,,,,,
1629975492.148051,14.000000,0.000000,4280.000000,4278.461426,4181.538574,4123.589844,4208.205078,450.000000,1.000000,15.000000,,,,0.000000,4.000000,4.000000,4.000000,4.000000,4.000000,100.000000,,,,,,,,7.000000,0.000000,0.190291,-0.233398,0.690918,0.657227,0.614267,-0.806653,0.021973,-53.170979,-60.137024,46.821552,,,
1629975492.155766,15.000000,0.000000,4282.051270,4272.307617,4194.871582,4129.230957,4200.512695,16209.000000,1.000000,15.000000,,,,0.000000,4.000000,4.000000,4.000000,4.000000,4.000000,100.000000,,,,,,,,,,,,,,,,,,,,,,
1629975492.163580,16.000000,0.000000,4352.820313,4259.487305,4178.461426,4108.717773,4242.051270,0.000000,1.000000,15.000000,,,,0.000000,4.000000,4.000000,4.000000,4.000000,4.000000,100.000000,,,,,,,,8.000000,0.000000,0.190291,-0.233398,0.690918,0.657227,0.604013,-0.813489,0.024414,-51.921326,-60.164673,46.804996,,,
1629975492.171294,17.000000,0.000000,4328.205078,4249.230957,4170.256348,4089.743652,4232.820313,0.000000,1.000000,15.000000,,,,0.000000,4.000000,4.000000,4.000000,4.000000,4.000000,100.000000,,,,,,,,,,,,,,,,,,,,,,
1629975492.179109,18.000000,0.000000,4229.743652,4247.692383,4171.794922,4095.384521,4157.436035,0.000000,1.000000,15.000000,,,,0.000000,4.000000,4.000000,4.000000,4.000000,4.000000,100.000000,,,,,,,,9.000000,0.000000,0.189403,-0.233398,0.691162,0.657227,0.610849,-0.821302,0.023438,-50.677010,-60.189560,46.730282,,,
1629975492.186823,19.000000,0.000000,4216.410156,4248.205078,4163.589844,4091.794922,4136.922852,0.000000,1.000000,15.000000,,,,0.000000,4.000000,4.000000,4.000000,4.000000,4.000000,100.000000,,,,,,,,,,,,,,,,,,,,,,
1629975492.194638,20.000000,0.000000,4243.589844,4246.153809,4158.461426,4070.769287,4156.410156,0.000000,1.000000,15.000000,,,,0.000000,4.000000,4.000000,4.000000,4.000000,4.000000,100.000000,,,,,,,,10.000000,0.000000,0.189403,-0.233398,0.691162,0.657227,0.596689,-0.817884,0.022461,-52.966599,-60.211956,46.722851,,,
1629975492.202352,21.000000,0.000000,4222.563965,4244.102539,4148.717773,4066.666748,4131.282227,0.000000,1.000000,15.000000,,,,0.000000,4.000000,4.000000,4.000000,4.000000,4.000000,100.000000,,,,,,,,,,,,,,,,,,,,,,
1629975492.210167,22.000000,0.000000,4203.077148,4249.230957,4154.871582,4081.025635,4117.948730,0.000000,1.000000,15.000000,,,,0.000000,4.000000,4.000000,4.000000,4.000000,4.000000,100.000000,,,,,,,,11.000000,0.000000,0.188855,-0.233154,0.691162,0.657471,0.602548,-0.828626,0.021973,-55.027229,-60.411556,46.656349,,,
1629975492.217881,23.000000,0.000000,4231.794922,4252.820313,4162.563965,4088.718018,4130.256348,0.000000,1.000000,15.000000,,,,0.000000,4.000000,4.000000,4.000000,4.000000,4.000000,100.000000,,,,,,,,,,,,,,,,,,,,,,
1629975492.225696,24.000000,0.000000,4295.384766,4247.179688,4155.897461,4081.025635,4169.743652,0.000000,1.000000,15.000000,,,,0.000000,4.000000,4.000000,4.000000,4.000000,4.000000,100.000000,,,,,,,,12.000000,0.000000,0.188262,-0.232910,0.691406,0.657471,0.592782,-0.835462,0.031250,-56.941608,-60.471569,46.596497,,,
1629975492.233410,25.000000,0.000000,4275.897461,4245.641113,4157.436035,4078.461426,4210.256348,0.000000,1.000000,15.000000,,,,0.000000,4.000000,4.000000,4.000000,4.000000,4.000000,100.000000,,,,,,,,,,,,,,,,,,,,,,
1629975492.241225,26.000000,0.000000,4206.153809,4248.205078,4156.922852,4089.230713,4183.589844,0.000000,1.000000,15.000000,,,,0.000000,4.000000,4.000000,4.000000,4.000000,4.000000,100.000000,,,,,,,,13.000000,0.000000,0.188262,-0.232910,0.691406,0.657471,0.601572,-0.822766,0.019532,-58.724369,-60.465763,46.662262,,,
1629975492.248939,27.000000,0.000000,4263.077148,4249.743652,4164.615234,4096.410156,4168.205078,0.000000,1.000000,15.000000,,,,0.000000,4.000000,4.000000,4.000000,4.000000,4.000000,100.000000,,,,,,,,,,,,,,,,,,,,1.000000,0.000000,0.000000
1629975492.256753,28.000000,0.000000,4342.051270,4252.820313,4170.769043,4093.846191,4217.436035,0.000000,1.000000,15.000000,,,,0.000000,4.000000,4.000000,4.000000,4.000000,4.000000,100.000000,,,,,,,,14.000000,0.000000,0.188864,-0.232422,0.691406,0.657471,0.595712,-0.824720,0.021485,-60.209225,-60.460541,46.542004,,,
1629975492.264468,29.000000,0.000000,4251.282227,4254.358887,4164.102539,4088.718018,4201.025879,0.000000,1.000000,15.000000,,,,0.000000,4.000000,4.000000,4.000000,4.000000,4.000000,100.000000,,,,,,,,,,,,,,,,,,,,,,
1629975492.272183,30.000000,0.000000,4175.384766,4252.307617,4168.205078,4088.718018,4130.769043,0.000000,1.000000,15.000000,,,,0.000000,4.000000,4.000000,4.000000,4.000000,4.000000,100.000000,,,,,,,,15.000000,0.000000,0.187968,-0.232422,0.691650,0.657471,0.592782,-0.830579,0.031739,-61.425961,-60.396023,46.553402,,,
1629975492.279997,31.000000,0.000000,4307.692383,4249.230957,4161.025879,4088.718018,4185.128418,0.000000,1.000000,15.000000,,,,0.000000,4.000000,4.000000,4.000000,4.000000,4.000000,100.000000,,,,,,,,,,,,,,,,,,,,,,
1629975492.287811,32.000000,0.000000,4360.000000,4251.282227,4160.000000,4088.205078,4275.897461,0.000000,1.000000,15.000000,,,,0.000000,4.000000,4.000000,4.000000,4.000000,4.000000,100.000000,,,,,,,,16.000000,0.000000,0.188270,-0.232178,0.691650,0.657471,0.598642,-0.831556,0.027344,-59.231178,-60.278141,46.563660,,,
1629975492.295526,33.000000,0.000000,4206.153809,4255.384766,4168.717773,4091.794922,4216.410156,0.000000,1.000000,15.000000,,,,0.000000,4.000000,4.000000,4.000000,4.000000,4.000000,100.000000,,,,,,,,,,,,,,,,,,,,,,
1629975492.303240,34.000000,0.000000,4208.205078,4255.384766,4156.410156,4089.743652,4106.666504,0.000000,1.000000,15.000000,,,,0.000000,4.000000,4.000000,4.000000,4.000000,4.000000,100.000000,,,,,,,,17.000000,0.000000,0.187673,-0.231934,0.691895,0.657471,0.604990,-0.831067,0.025391,-60.545719,-60.351494,46.632706,,,
1629975492.311055,35.000000,0.000000,4353.846191,4254.358887,4158.461426,4084.102539,4109.743652,0.000000,1.000000,15.000000,,,,0.000000,4.000000,4.000000,4.000000,4.000000,4.000000,100.000000,,,,,,,,,,,,,,,,,,,,,,
1629975492.318769,36.000000,0.000000,4315.897461,4250.769043,4162.563965,4088.718018,4210.769043,0.000000,1.000000,15.000000,,,,0.000000,4.000000,4.000000,4.000000,4.000000,4.000000,100.000000,,,,,,,,18.000000,0.000000,0.187974,-0.231689,0.691895,0.657471,0.585458,-0.840345,0.027344,-61.788624,-60.417511,46.635036,,,
1629975492.326583,37.000000,0.000000,4239.487305,4251.794922,4160.512695,4095.384521,4294.871582,0.000000,1.000000,15.000000,,,,0.000000,4.000000,4.000000,4.000000,4.000000,4.000000,100.000000,,,,,,,,,,,,,,,,,,,,,,
1629975492.334298,38.000000,0.000000,4299.487305,4265.128418,4170.769043,4093.333252,4242.051270,0.000000,1.000000,15.000000,,,,0.000000,4.000000,4.000000,4.000000,4.000000,4.000000,100.000000,,,,,,,,19.000000,0.000000,0.188275,-0.231445,0.691895,0.657471,0.596689,-0.827649,0.020996,-62.967049,-60.357296,46.517498,,,
1629975492.342112,39.000000,0.000000,4287.179688,4272.820313,4177.436035,4094.358887,4110.256348,0.000000,1.000000,15.000000,,,,0.000000,4.000000,4.000000,4.000000,4.000000,4.000000,100.000000,,,,,,,,,,,,,,,,,,,,,,
1629975492.349827,40.000000,0.000000,4247.692383,4267.179688,4179.487305,4103.589844,4132.820313,0.000000,1.000000,15.000000,,,,0.000000,4.000000,4.000000,4.000000,4.000000,4.000000,100.000000,,,,,,,,20.000000,0.000000,0.186516,-0.231445,0.692139,0.657715,0.588388,-0.827649,0.026856,-64.087448,-60.362919,46.411716,,,
1629975492.357641,41.000000,0.000000,4309.230957,4264.615234,4164.102539,4100.000000,4236.922852,0.000000,1.000000,15.000000,,,,0.000000,4.000000,4.000000,4.000000,4.000000,4.000000,100.000000,,,,,,,,,,,,,,,,,,,,,,
1629975492.365356,42.000000,0.000000,4321.538574,4262.051270,4156.410156,4091.794922,4229.230957,0.000000,1.000000,15.000000,,,,0.000000,4.000000,4.000000,4.000000,4.000000,4.000000,100.000000,,,,,,,,21.000000,0.000000,0.186819,-0.231201,0.692139,0.657715,0.594247,-0.820325,0.029297,-64.976181,-60.308163,46.436146,,,
1629975492.373170,43.000000,0.000000,4263.077148,4254.358887,4171.794922,4094.871826,4186.666504,0.000000,1.000000,15.000000,,,,0.000000,4.000000,4.000000,4.000000,4.000000,4.000000,100.000000,1.000000,33.333332,0.000000,4.000000,4.000000,4.000000,0.000000,,,,,,,,,,,,,1.000000,0.000000,0.000000
1629975492.380885,44.000000,0.000000,4224.615234,4250.256348,4166.666504,4095.384521,4192.820313,0.000000,1.000000,15.000000,,,,0.000000,4.000000,4.000000,4.000000,4.000000,4.000000,100.000000,,,,,,,,22.000000,0.000000,0.186819,-0.231201,0.692139,0.657715,0.595224,-0.830579,0.009766,-65.776039,-60.378517,46.458130,,,
1629975492.388699,45.000000,0.000000,4285.128418,4248.717773,4159.487305,4087.179443,4216.410156,0.000000,1.000000,15.000000,,,,0.000000,4.000000,4.000000,4.000000,4.000000,4.000000,100.000000,,,,,,,,,,,,,,,,,,,,,,
1629975492.396414,46.000000,0.000000,4366.153809,4243.077148,4160.000000,4088.718018,4221.025879,0.000000,1.000000,15.000000,,,,0.000000,4.000000,4.000000,4.000000,4.000000,4.000000,100.000000,,,,,,,,23.000000,0.000000,0.186819,-0.231201,0.692139,0.657715,0.591318,-0.828626,0.026856,-66.495911,-60.501648,46.597546,,,
1629975492.404228,47.000000,0.000000,4308.205078,4239.487305,4158.974121,4102.051270,4222.563965,0.000000,1.000000,15.000000,,,,0.000000,4.000000,4.000000,4.000000,4.000000,4.000000,100.000000,,,,,,,,,,,,,,,,,,,,,,
1629975492.411943,48.000000,0.000000,4227.179688,4254.871582,4179.487305,4110.256348,4201.025879,0.000000,1.000000,15.000000,,,,0.000000,4.000000,4.000000,4.000000,4.000000,4.000000,100.000000,,,,,,,,24.000000,0.000000,0.187121,-0.230957,0.692139,0.657715,0.595712,-0.827161,0.022461,-67.143791,-60.433018,46.603390,,,
1629975492.419757,49.000000,0.000000,4273.846191,4272.820313,4191.794922,4106.666504,4178.461426,0.000000,1.000000,15.000000,,,,0.000000,4.000000,4.000000,4.000000,4.000000,4.000000,100.000000,,,,,,,,,,,,,,,,,,,,,,
1629975492.427471,50.000000,0.000000,4335.897461,4270.256348,4189.743652,4103.589844,4219.487305,0.000000,1.000000,15.000000,,,,0.000000,4.000000,4.000000,4.000000,4.000000,4.000000,100.000000,,,,,,,,25.000000,0.000000,0.187121,-0.230957,0.692139,0.657715,0.603037,-0.831067,0.031739,-64.437042,-60.371254,46.489017,,,
1629975492.435286,51.000000,0.000000,4316.922852,4260.512695,4184.615234,4112.307617,4288.717773,0.000000,1.000000,15.000000,,,,0.000000,4.000000,4.000000,4.000000,4.000000,4.000000,100.000000,,,,,,,,,,,,,,,,,,,,,,
1629975492.443000,52.000000,0.000000,4299.487305,4259.487305,4180.000000,4123.589844,4275.897461,0.000000,1.000000,15.000000,,,,0.000000,4.000000,4.000000,4.000000,4.000000,4.000000,100.000000,,,,,,,,26.000000,0.000000,0.186260,-0.230957,0.692139,0.657959,0.595224,-0.814466,0.028809,-62.060783,-60.375481,46.565529,,,
1629975492.450715,53.000000,0.000000,4317.436035,4260.000000,4188.717773,4123.589844,4208.717773,0.000000,1.000000,15.000000,,,,0.000000,4.000000,4.000000,4.000000,4.000000,4.000000,100.000000,,,,,,,,,,,,,,,,,,,,,,
1629975492.458529,54.000000,0.000000,4341.538574,4257.948730,4185.128418,4117.948730,4229.743652,0.000000,1.000000,15.000000,,,,0.000000,4.000000,4.000000,4.000000,4.000000,4.000000,100.000000,,,,,,,,27.000000,0.000000,0.186260,-0.230957,0.692139,0.657959,0.591806,-0.830091,0.023926,-59.742702,-60.319469,46.574574,,,
1629975492.466244,55.000000,0.000000,4323.077148,4261.538574,4187.179688,4123.589844,4254.358887,0.000000,1.000000,15.000000,,,,0.000000,4.000000,4.000000,4.000000,4.000000,4.000000,100.000000,,,,,,,,,,,,,,,,,,,,,,
1629975492.474058,56.000000,0.000000,4255.897461,4267.179688,4197.436035,4133.846191,4220.000000,0.000000,1.000000,15.000000,,,,0.000000,4.000000,4.000000,4.000000,4.000000,4.000000,100.000000,,,,,,,,28.000000,0.000000,0.186607,-0.230713,0.691895,0.658203,0.601083,-0.828626,0.006836,-57.656433,-60.269058,46.582718,,,
1629975492.481773,57.000000,0.000000,4268.717773,4269.230957,4184.615234,4123.589844,4233.333496,0.000000,1.000000,15.000000,,,,0.000000,4.000000,4.000000,4.000000,4.000000,4.000000,100.000000,,,,,,,,,,,,,,,,,,,,,,
1629975492.489587,58.000000,0.000000,4326.153809,4265.641113,4181.538574,4107.179688,4267.179688,0.000000,1.000000,15.000000,,,,0.000000,4.000000,4.000000,4.000000,4.000000,4.000000,100.000000,,,,,,,,29.000000,0.000000,0.185699,-0.230713,0.692139,0.658203,0.585946,-0.826673,0.020020,-59.248077,-60.343319,46.530228,,,
1629975492.497302,59.000000,0.000000,4297.948730,4251.794922,4181.538574,4109.743652,4241.538574,0.000000,1.000000,15.000000,,,,0.000000,4.000000,4.000000,4.000000,4.000000,4.000000,100.000000,,,,,,,,,,,,,,,,,,,,1.000000,0.000000,0.000000
1629975492.505116,60.000000,0.000000,4270.256348,4248.717773,4185.128418,4120.512695,4220.000000,0.000000,1.000000,15.000000,,,,0.000000,4.000000,4.000000,4.000000,4.000000,4.000000,100.000000,,,,,,,,30.000000,0.000000,0.186260,-0.230957,0.692139,0.657959,0.591806,-0.830091,0.023926,-60.560928,-60.469971,46.542805,,,
1629975492.512831,61.000000,0.000000,4314.358887,4255.384766,4188.205078,4117.948730,4244.102539,0.000000,1.000000,15.000000,,,,0.000000,4.000000,4.000000,4.000000,4.000000,4.000000,100.000000,,,,,,,,,,,,,,,,,,,,,,
1629975492.520645,62.000000,0.000000,4297.948730,4247.692383,4168.205078,4107.179688,4235.384766,0.000000,1.000000,15.000000,,,,0.000000,4.000000,4.000000,4.000000,4.000000,4.000000,100.000000,,,,,,,,31.000000,0.000000,0.185699,-0.230713,0.692139,0.658203,0.585946,-0.826673,0.020020,-61.862125,-60.524139,46.494305,,,
1629975492.528359,63.000000,0.000000,4263.077148,4243.589844,4176.922852,4118.974121,4224.615234,0.000000,1.000000,15.000000,,,,0.000000,4.000000,4.000000,4.000000,4.000000,4.000000,100.000000,,,,,,,,,,,,,,,,,,,,,,
1629975492.536174,64.000000,0.000000,4311.282227,4254.358887,4193.333496,4135.897461,4241.538574,450.000000,1.000000,15.000000,,,,0.000000,4.000000,4.000000,4.000000,4.000000,4.000000,100.000000,,,,,,,,32.000000,0.000000,0.185699,-0.230713,0.692139,0.658203,0.607431,-0.829602,0.023438,-59.743359,-60.513077,46.630104,,,
1629975492.543988,65.000000,0.000000,4317.436035,4254.358887,4185.641113,4126.153809,4240.512695,450.000000,1.000000,15.000000,,,,0.000000,4.000000,4.000000,4.000000,4.000000,4.000000,100.000000,,,,,,,,,,,,,,,,,,,,,,
1629975492.551703,66.000000,0.000000,4298.461426,4249.743652,4185.641113,4110.769043,4239.487305,16232.000000,1.000000,15.000000,,,,0.000000,4.000000,4.000000,4.000000,4.000000,4.000000,100.000000,,,,,,,,33.000000,0.000000,0.186607,-0.230713,0.691895,0.658203,0.600107,-0.842786,0.029786,-61.126312,-60.622753,46.632694,,,
1629975492.559417,67.000000,0.000000,4309.743652,4253.846191,4178.974121,4107.179688,4230.769043,450.000000,1.000000,15.000000,,,,0.000000,4.000000,4.000000,4.000000,4.000000,4.000000,100.000000,,,,,,,,,,,,,,,,,,,,,,
1629975492.567231,68.000000,0.000000,4279.487305,4253.846191,4173.846191,4111.282227,4205.128418,16234.000000,1.000000,15.000000,,,,0.000000,4.000000,4.000000,4.000000,4.000000,4.000000,100.000000,,,,,,,,34.000000,0.000000,0.185744,-0.230713,0.691895,0.658447,0.586435,-0.839368,0.025879,-59.320389,-60.601830,46.635021,,,
1629975492.574946,69.000000,0.000000,4285.128418,4255.384766,4186.666504,4126.666504,4230.769043,450.000000,1.000000,15.000000,,,,0.000000,4.000000,4.000000,4.000000,4.000000,4.000000,100.000000,,,,,,,,,,,,,,,,,,,,,,
1629975492.582760,70.000000,0.000000,4356.410156,4263.589844,4203.077148,4133.333496,4284.102539,16195.000000,1.000000,15.000000,,,,0.000000,4.000000,4.000000,4.000000,4.000000,4.000000,100.000000,,,,,,,,35.000000,0.000000,0.185744,-0.230713,0.691895,0.658447,0.597177,-0.839857,0.020996,-60.745640,-60.642815,46.696934,,,
1629975492.590475,71.000000,0.000000,4362.563965,4261.025879,4203.077148,4122.051270,4276.922852,450.000000,1.000000,15.000000,,,,0.000000,4.000000,4.000000,4.000000,4.000000,4.000000,100.000000,,,,,,,,,,,,,,,,,,,,,,
1629975492.598289,72.000000,0.000000,4279.487305,4254.871582,4186.666504,4123.077148,4221.025879,450.000000,1.000000,15.000000,,,,0.000000,4.000000,4.000000,4.000000,4.000000,4.000000,100.000000,,,,,,,,36.000000,0.000000,0.185440,-0.230957,0.691895,0.658447,0.587411,-0.823255,0.022461,-62.088181,-60.679699,46.692841,,,
1629975492.606004,73.000000,0.000000,4228.205078,4255.897461,4190.769043,4132.307617,4214.358887,16206.000000,1.000000,15.000000,,,,0.000000,4.000000,4.000000,4.000000,4.000000,4.000000,100.000000,,,,,,,,,,,,,,,,,,,,,,
1629975492.613918,74.000000,0.000000,4307.179688,4256.410156,4194.358887,4126.666504,4296.922852,450.000000,1.000000,15.000000,,,,0.000000,4.000000,4.000000,4.000000,4.000000,4.000000,100.000000,,,,,,,,37.000000,0.000000,0.186349,-0.230957,0.691650,0.658447,0.598154,-0.831556,0.018067,-59.886993,-60.772713,46.689156,,,
1629975492.621733,75.000000,0.000000,4417.948730,4253.333496,4181.025879,4119.487305,4336.410156,16196.000000,1.000000,15.000000,,,,0.000000,4.000000,4.000000,4.000000,4.000000,4.000000,100.000000,,,,,,,,,,,,,,,,,,,,1.000000,0.000000,0.000000
1629975492.629548,76.000000,0.000000,4345.128418,4256.410156,4185.128418,4116.410156,4248.717773,450.000000,1.000000,15.000000,,,,0.000000,4.000000,4.000000,4.000000,4.000000,4.000000,100.000000,,,,,,,,38.000000,0.000000,0.186349,-0.230957,0.691650,0.658447,0.599130,-0.828138,0.031250,-57.786293,-60.796608,46.745651,,,
1629975492.637262,77.000000,0.000000,4226.153809,4261.538574,4183.077148,4109.743652,4172.307617,450.000000,1.000000,15.000000,,,,0.000000,4.000000,4.000000,4.000000,4.000000,4.000000,100.000000,,,,,,,,,,,,,,,,,,,,,,
1629975492.645076,78.000000,0.000000,4257.948730,4259.487305,4178.974121,4115.897461,4188.205078,450.000000,1.000000,15.000000,,,,0.000000,4.000000,4.000000,4.000000,4.000000,4.000000,100.000000,,,,,,,,39.000000,0.000000,0.186349,-0.230957,0.691650,0.658447,0.586923,-0.839368,0.030762,-55.955475,-60.818115,46.617054,,,
1629975492.652790,79.000000,0.000000,4303.077148,4256.410156,4185.128418,4125.641113,4249.230957,16196.000000,1.000000,15.000000,,,,0.000000,4.000000,4.000000,4.000000,4.000000,4.000000,100.000000,,,,,,,,,,,,,,,,,,,,,,
1629975492.660605,80.000000,0.000000,4320.000000,4253.333496,4175.384766,4112.820313,4305.128418,450.000000,1.000000,15.000000,,,,0.000000,4.000000,4.000000,4.000000,4.000000,4.000000,100.000000,,,,,,,,40.000000,0.000000,0.186349,-0.230957,0.691650,0.658447,0.598642,-0.849622,0.026856,-57.717220,-60.837471,46.561134,,,
1629975492.668319,81.000000,0.000000,4346.666504,4255.384766,4181.025879,4108.205078,4284.102539,450.000000,1.000000,15.000000,,,,0.000000,4.000000,4.000000,4.000000,4.000000,4.000000,100.000000,,,,,,,,,,,,,,,,,,,,,,
1629975492.676033,82.000000,0.000000,4292.307617,4264.102539,4190.769043,4122.563965,4211.794922,450.000000,1.000000,15.000000,,,,0.000000,4.000000,4.000000,4.000000,4.000000,4.000000,100.000000,,,,,,,,41.000000,0.000000,0.186046,-0.231201,0.691650,0.658447,0.583017,-0.837903,0.026368,-59.302788,-60.974522,46.570618,,,
1629975492.683848,83.000000,0.000000,4225.641113,4264.102539,4188.205078,4121.538574,4185.128418,16196.000000,1.000000,15.000000,,,,0.000000,4.000000,4.000000,4.000000,4.000000,4.000000,100.000000,,,,,,,,,,,,,,,,,,,,,,
1629975492.691562,84.000000,0.000000,4315.384766,4252.820313,4189.743652,4113.846191,4236.410156,450.000000,1.000000,15.000000,,,,0.000000,4.000000,4.000000,4.000000,4.000000,4.000000,100.000000,,,,,,,,42.000000,0.000000,0.186046,-0.231201,0.691650,0.658447,0.587900,-0.847181,0.037110,-57.320324,-60.978237,46.459522,,,
1629975492.699377,85.000000,0.000000,4374.871582,4248.717773,4185.128418,4115.384766,4309.230957,450.000000,1.000000,15.000000,,,,0.000000,4.000000,4.000000,4.000000,4.000000,4.000000,100.000000,,,,,,,,,,,,,,,,,,,,,,
1629975492.707091,86.000000,0.000000,4249.230957,4259.487305,4192.820313,4124.102539,4254.358887,450.000000,1.000000,15.000000,,,,0.000000,4.000000,4.000000,4.000000,4.000000,4.000000,100.000000,,,,,,,,43.000000,0.000000,0.186046,-0.231201,0.691650,0.658447,0.596201,-0.841810,0.011719,-59.005394,-60.981579,46.479172,,,
1629975492.714906,87.000000,0.000000,4222.051270,4268.205078,4196.410156,4135.384766,4165.128418,16196.000000,1.000000,15.000000,,,,0.000000,4.000000,4.000000,4.000000,4.000000,4.000000,100.000000,,,,,,,,,,,,,,,,,,,,,,
1629975492.722620,88.000000,0.000000,4369.230957,4262.563965,4188.205078,4131.794922,4264.102539,450.000000,1.000000,15.000000,,,,0.000000,4.000000,4.000000,4.000000,4.000000,4.000000,100.000000,,,,,,,,44.000000,0.000000,0.185742,-0.231445,0.691650,0.658447,0.587411,-0.831556,0.019532,-60.462147,-60.924774,46.496853,,,
1629975492.730434,89.000000,0.000000,4381.538574,4256.922852,4189.230957,4117.948730,4361.538574,450.000000,1.000000,15.000000,,,,0.000000,4.000000,4.000000,4.000000,4.000000,4.000000,100.000000,,,,,,,,,,,,,,,,,,,,,,
1629975492.738149,90.000000,0.000000,4281.025879,4260.000000,4181.538574,4117.948730,4270.769043,450.000000,1.000000,15.000000,,,,0.000000,4.000000,4.000000,4.000000,4.000000,4.000000,100.000000,,,,,,,,45.000000,0.000000,0.186302,-0.231689,0.691650,0.658203,0.593271,-0.847669,0.028809,-61.773220,-60.933464,46.572578,,,
1629975492.746064,91.000000,0.000000,4295.897461,4261.538574,4174.871582,4122.563965,4205.128418,16196.000000,1.000000,15.000000,,,,0.000000,4.000000,4.000000,4.000000,4.000000,4.000000,100.000000,,,,,,,,,,,,,,,,,,,,1.000000,0.000000,0.000000
1629975492.753878,92.000000,0.000000,4288.717773,4263.589844,4176.922852,4117.948730,4226.666504,450.000000,1.000000,15.000000,,,,0.000000,4.000000,4.000000,4.000000,4.000000,4.000000,100.000000,,,,,,,,46.000000,0.000000,0.187206,-0.231689,0.691406,0.658203,0.585458,-0.842298,0.023438,-59.483898,-60.881470,46.640736,,,
1629975492.761693,93.000000,0.000000,4222.563965,4262.563965,4177.436035,4114.871582,4233.333496,450.000000,1.000000,15.000000,,,,0.000000,4.000000,4.000000,4.000000,4.000000,4.000000,100.000000,,,,,,,,,,,,,,,,,,,,,,
1629975492.769407,94.000000,0.000000,4294.358887,4258.461426,4176.410156,4115.384766,4270.769043,450.000000,1.000000,15.000000,,,,0.000000,4.000000,4.000000,4.000000,4.000000,4.000000,100.000000,,,,,,,,47.000000,0.000000,0.186345,-0.231689,0.691406,0.658447,0.596201,-0.850599,0.021973,-57.602955,-60.834675,46.582447,,,
1629975492.777222,95.000000,0.000000,4382.051270,4260.000000,4168.205078,4109.743652,4290.769043,16196.000000,1.000000,15.000000,,,,0.000000,4.000000,4.000000,4.000000,4.000000,4.000000,100.000000,,,,,,,,,,,,,,,,,,,,,,
1629975492.784936,96.000000,0.000000,4300.000000,4263.077148,4179.487305,4109.230957,4215.897461,450.000000,1.000000,15.000000,,,,0.000000,4.000000,4.000000,4.000000,4.000000,4.000000,100.000000,,,,,,,,48.000000,0.000000,0.186903,-0.231934,0.691406,0.658203,0.598642,-0.843275,0.016602,-55.850288,-60.792561,46.589798,,,
1629975492.792751,97.000000,0.000000,4179.487305,4257.948730,4185.641113,4114.871582,4161.538574,450.000000,1.000000,15.000000,,,,0.000000,4.000000,4.000000,4.000000,4.000000,4.000000,100.000000,,,,,,,,,,,,,,,,,,,,,,
1629975492.800465,98.000000,0.000000,4171.282227,4246.666504,4166.153809,4109.230957,4185.128418,450.000000,1.000000,15.000000,,,,0.000000,4.000000,4.000000,4.000000,4.000000,4.000000,100.000000,,,,,,,,49.000000,0.000000,0.186903,-0.231934,0.691406,0.658203,0.584482,-0.848157,0.023438,-57.682365,-60.754654,46.476788,,,
1629975492.808280,99.000000,0.000000,4245.641113,4245.128418,4166.666504,4104.102539,4197.436035,16196.000000,1.000000,15.000000,,,,0.000000,4.000000,4.000000,4.000000,4.000000,4.000000,100.000000,,,,,,,,,,,,,,,,,,,,,,
1629975492.815994,100.000000,0.000000,4321.025879,4254.358887,4166.666504,4114.358887,4213.333496,450.000000,1.000000,15.000000,,,,0.000000,4.000000,4.000000,4.000000,4.000000,4.000000,100.000000,,,,,,,,50.000000,0.000000,0.187459,-0.232178,0.691406,0.657959,0.590829,-0.848646,0.018555,-59.391048,-60.840172,46.494709,,,
1629975492.823808,101.000000,0.000000,4317.436035,4258.461426,4170.256348,4125.128418,4261.538574,450.000000,1.000000,15.000000,,,,0.000000,4.000000,4.000000,4.000000,4.000000,4.000000,100.000000,,,,,,,,,,,,,,,,,,,,,,
1629975492.831523,102.000000,0.000000,4250.256348,4253.846191,4182.051270,4124.615234,4238.974121,450.000000,1.000000,15.000000,,,,0.000000,4.000000,4.000000,4.000000,4.000000,4.000000,100.000000,,,,,,,,51.000000,0.000000,0.187156,-0.232422,0.691406,0.657959,0.573251,-0.856458,0.023926,-60.749416,-60.737690,46.510834,,,
1629975492.839237,103.000000,0.000000,4253.846191,4253.333496,4173.333496,4115.384766,4189.743652,16196.000000,1.000000,15.000000,,,,0.000000,4.000000,4.000000,4.000000,4.000000,4.000000,100.000000,,,,,,,,,,,,,,,,,,,,,,
1629975492.847052,104.000000,0.000000,4308.717773,4258.461426,4172.820313,4114.871582,4248.205078,450.000000,1.000000,15.000000,,,,0.000000,4.000000,4.000000,4.000000,4.000000,4.000000,100.000000,,,,,,,,52.000000,0.000000,0.187710,-0.232666,0.691406,0.657715,0.583505,-0.854017,0.029786,-61.971951,-60.765091,46.644981,,,
1629975492.854866,105.000000,0.000000,4305.641113,4255.897461,4169.743652,4121.025879,4322.051270,450.000000,1.000000,15.000000,,,,0.000000,4.000000,4.000000,4.000000,4.000000,4.000000,100.000000,,,,,,,,,,,,,,,,,,,,,,
1629975492.862580,106.000000,0.000000,4263.589844,4249.230957,4158.974121,4117.948730,4257.948730,450.000000,1.000000,15.000000,,,,0.000000,4.000000,4.000000,4.000000,4.000000,4.000000,100.000000,,,,,,,,53.000000,0.000000,0.188262,-0.232910,0.691406,0.657471,0.598642,-0.862318,0.025391,-63.072231,-60.849564,46.586266,,,
1629975492.870395,107.000000,0.000000,4236.410156,4244.102539,4164.615234,4115.384766,4189.230957,16196.000000,1.000000,15.000000,,,,0.000000,4.000000,4.000000,4.000000,4.000000,4.000000,100.000000,1.000000,41.666668,1.000000,4.000000,4.000000,4.000000,0.000000,,,,,,,,,,,,,1.000000,0.000000,0.000000
1629975492.878109,108.000000,0.000000,4220.512695,4239.487305,4167.179688,4123.077148,4162.051270,450.000000,1.000000,15.000000,,,,0.000000,4.000000,4.000000,4.000000,4.000000,4.000000,100.000000,,,,,,,,54.000000,0.000000,0.188509,-0.233398,0.691406,0.657227,0.588876,-0.851087,0.032715,-64.241928,-60.746143,46.413792,,,
1629975492.885823,109.000000,0.000000,4231.794922,4246.153809,4166.153809,4130.769043,4142.051270,450.000000,1.000000,15.000000,,,,0.000000,4.000000,4.000000,4.000000,4.000000,4.000000,100.000000,,,,,,,,,,,,,,,,,,,,,,
1629975492.893638,110.000000,0.000000,4295.897461,4256.922852,4162.051270,4131.282227,4246.666504,450.000000,1.000000,15.000000,,,,0.000000,4.000000,4.000000,4.000000,4.000000,4.000000,100.000000,,,,,,,,55.000000,0.000000,0.189057,-0.233643,0.691406,0.656982,0.582040,-0.853040,0.016114,-65.175026,-60.653065,46.438011,,,
1629975492.901452,111.000000,0.000000,4266.153809,4258.974121,4174.358887,4125.641113,4280.000000,16196.000000,1.000000,15.000000,,,,0.000000,4.000000,4.000000,4.000000,4.000000,4.000000,100.000000,,,,,,,,,,,,,,,,,,,,,,
1629975492.909166,112.000000,0.000000,4151.794922,4263.077148,4201.025879,4129.230957,4141.538574,450.000000,1.000000,15.000000,,,,0.000000,4.000000,4.000000,4.000000,4.000000,4.000000,100.000000,,,,,,,,56.000000,0.000000,0.189301,-0.234131,0.691406,0.656738,0.594736,-0.854994,0.015137,-66.074631,-60.688927,46.519623,,,
1629975492.916881,113.000000,0.000000,4241.538574,4264.102539,4188.205078,4140.000000,4191.794922,450.000000,1.000000,15.000000,,,,0.000000,4.000000,4.000000,4.000000,4.000000,4.000000,100.000000,,,,,,,,,,,,,,,,,,,,,,
1629975492.924695,114.000000,0.000000,4415.897461,4256.410156,4183.077148,4146.153809,4367.692383,450.000000,1.000000,15.000000,,,,0.000000,4.000000,4.000000,4.000000,4.000000,4.000000,100.000000,,,,,,,,57.000000,0.000000,0.190687,-0.234375,0.691406,0.656250,0.602060,-0.857435,0.020996,-66.704826,-60.601570,46.533260,,,
1629975492.932410,115.000000,0.000000,4362.563965,4257.436035,4200.512695,4147.179688,4316.410156,16196.000000,1.000000,15.000000,,,,0.000000,4.000000,4.000000,4.000000,4.000000,4.000000,100.000000,,,,,,,,,,,,,,,,,,,,,,
1629975492.940224,116.000000,0.000000,4231.794922,4257.436035,4189.743652,4147.692383,4205.128418,450.000000,1.000000,15.000000,,,,0.000000,4.000000,4.000000,4.000000,4.000000,4.000000,100.000000,,,,,,,,58.000000,0.000000,0.191226,-0.234619,0.691406,0.656006,0.594736,-0.871595,0.026856,-67.391632,-60.522949,46.545532,,,
1629975492.947939,117.000000,0.000000,4211.282227,4246.153809,4180.512695,4148.717773,4204.102539,450.000000,1.000000,15.000000,,,,0.000000,4.000000,4.000000,4.000000,4.000000,4.000000,100.000000,,,,,,,,,,,,,,,,,,,,,,
1629975492.955753,118.000000,0.000000,4216.410156,4237.948730,4170.769043,4142.563965,4209.230957,450.000000,1.000000,15.000000,,,,0.000000,4.000000,4.000000,4.000000,4.000000,4.000000,100.000000,,,,,,,,59.000000,0.000000,0.192596,-0.234863,0.691406,0.655518,0.588388,-0.868666,0.015625,-68.009758,-60.512009,46.496761,,,
1629975492.963468,119.000000,0.000000,4249.230957,4240.000000,4162.563965,4138.974121,4255.897461,16196.000000,1.000000,15.000000,,,,0.000000,4.000000,4.000000,4.000000,4.000000,4.000000,100.000000,,,,,,,,,,,,,,,,,,,,,,
1629975492.971282,120.000000,0.000000,4305.641113,4248.205078,4173.333496,4150.769043,4272.820313,450.000000,1.000000,15.000000,,,,0.000000,4.000000,4.000000,4.000000,4.000000,4.000000,100.000000,,,,,,,,60.000000,0.000000,0.192551,-0.234863,0.691650,0.655273,0.586435,-0.869154,0.022950,-68.625885,-60.442345,46.632317,,,
1629975492.978997,121.000000,0.000000,4284.615234,4247.692383,4181.538574,4155.384766,4204.615234,450.000000,1.000000,15.000000,,,,0.000000,4.000000,4.000000,4.000000,4.000000,4.000000,100.000000,,,,,,,,,,,,,,,,,,,,,,
1629975492.986811,122.000000,0.000000,4230.769043,4236.410156,4178.974121,4140.512695,4208.205078,450.000000,1.000000,15.000000,,,,0.000000,4.000000,4.000000,4.000000,4.000000,4.000000,100.000000,,,,,,,,61.000000,0.000000,0.193909,-0.235107,0.691650,0.654785,0.587411,-0.875990,0.024414,-68.941147,-60.379646,46.574867,,,
1629975492.994525,123.000000,0.000000,4217.948730,4234.358887,4164.102539,4128.717773,4267.692383,16196.000000,1.000000,15.000000,,,,0.000000,4.000000,4.000000,4.000000,4.000000,4.000000,100.000000,,,,,,,,,,,,,,,,,,,,1.000000,0.000000,0.000000
1629975493.002340,124.000000,0.000000,4262.563965,4240.512695,4170.769043,4135.384766,4276.922852,450.000000,1.000000,15.000000,,,,0.000000,4.000000,4.000000,4.000000,4.000000,4.000000,100.000000,,,,,,,,62.000000,0.000000,0.195256,-0.235352,0.691650,0.654297,0.597665,-0.892592,0.020020,-69.404320,-60.383034,46.582977,,,
1629975493.010054,125.000000,0.000000,4300.000000,4236.922852,4192.307617,4149.230957,4232.820313,450.000000,1.000000,15.000000,,,,0.000000,4.000000,4.000000,4.000000,4.000000,4.000000,100.000000,,,,,,,,,,,,,,,,,,,,,,
1629975493.017869,126.000000,0.000000,4221.538574,4229.230957,4180.512695,4142.051270,4175.897461,450.000000,1.000000,15.000000,,,,0.000000,4.000000,4.000000,4.000000,4.000000,4.000000,100.000000,,,,,,,,63.000000,0.000000,0.197403,-0.235596,0.691650,0.653564,0.597177,-0.903334,0.032715,-69.761360,-60.326267,46.590279,,,
1629975493.025583,127.000000,0.000000,4174.871582,4225.641113,4169.743652,4119.487305,4180.000000,232.000000,1.000000,15.000000,,,,0.000000,4.000000,4.000000,4.000000,4.000000,4.000000,100.000000,,,,,,,,,,,,,,,,,,,,,,
1629975493.033497,0.000000,0.000000,4260.000000,4223.589844,4168.717773,4117.436035,4223.589844,450.000000,1.000000,15.000000,,,,0.000000,4.000000,4.000000,4.000000,4.000000,4.000000,100.000000,,,,,,,,0.000000,0.000000,0.193909,-0.235107,0.691650,0.654785,0.587411,-0.875990,0.024414,-70.142517,-60.215359,46.656666,,,
1629975493.041312,1.000000,0.000000,4281.025879,4228.717773,4174.871582,4135.384766,4235.897461,450.000000,1.000000,15.000000,,,,0.000000,4.000000,4.000000,4.000000,4.000000,4.000000,100.000000,,,,,,,,,,,,,,,,,,,,,,
1629975493.049126,2.000000,0.000000,4225.128418,4245.128418,4193.846191,4148.717773,4247.179688,16216.000000,1.000000,15.000000,,,,0.000000,4.000000,4.000000,4.000000,4.000000,4.000000,100.000000,,,,,,,,1.000000,0.000000,0.197403,-0.235596,0.691650,0.653564,0.597177,-0.903334,0.032715,-70.425735,-60.175362,46.656597,,,
1629975493.057041,3.000000,0.000000,4225.128418,4245.128418,4186.153809,4142.051270,4231.282227,450.000000,1.000000,15.000000,,,,0.000000,4.000000,4.000000,4.000000,4.000000,4.000000,100.000000,,,,,,,,,,,,,,,,,,,,,,
1629975493.064855,4.000000,0.000000,4237.436035,4230.256348,4178.974121,4129.230957,4202.563965,16222.000000,1.000000,15.000000,,,,0.000000,4.000000,4.000000,4.000000,4.000000,4.000000,100.000000,,,,,,,,2.000000,0.000000,0.198433,-0.236084,0.691650,0.653076,0.591318,-0.892103,0.028809,-70.910049,-60.166779,46.716297,,,
1629975493.072770,5.000000,0.000000,4221.538574,4231.794922,4179.487305,4130.769043,4223.589844,450.000000,1.000000,15.000000,,,,0.000000,4.000000,4.000000,4.000000,4.000000,4.000000,100.000000,,,,,,,,,,,,,,,,,,,,,,
1629975493.080585,6.000000,0.000000,4238.974121,4233.333496,4169.743652,4134.358887,4243.077148,16204.000000,1.000000,15.000000,,,,0.000000,4.000000,4.000000,4.000000,4.000000,4.000000,100.000000,,,,,,,,3.000000,0.000000,0.200806,-0.236816,0.691406,0.652344,0.585458,-0.902846,0.033204,-71.295967,-60.131638,46.530819,,,
1629975493.088499,7.000000,0.000000,4235.384766,4223.077148,4172.307617,4132.820313,4226.666504,450.000000,1.000000,15.000000,,,,0.000000,4.000000,4.000000,4.000000,4.000000,4.000000,100.000000,,,,,,,,,,,,,,,,,,,,,,
1629975493.096314,8.000000,0.000000,4151.282227,4212.307617,4167.179688,4127.179688,4173.333496,450.000000,1.000000,15.000000,,,,0.000000,4.000000,4.000000,4.000000,4.000000,4.000000,100.000000,,,,,,,,4.000000,0.000000,0.202313,-0.237549,0.691406,0.651611,0.590829,-0.905287,0.036133,-71.523659,-59.980377,46.543335,,,
1629975493.104228,9.000000,0.000000,4132.307617,4211.794922,4155.384766,4125.128418,4154.358887,16191.000000,1.000000,15.000000,,,,0.000000,4.000000,4.000000,4.000000,4.000000,4.000000,100.000000,,,,,,,,,,,,,,,,,,,,,,
1629975493.112043,10.000000,0.000000,4260.000000,4225.641113,4151.794922,4127.179688,4258.461426,450.000000,1.000000,15.000000,,,,0.000000,4.000000,4.000000,4.000000,4.000000,4.000000,100.000000,,,,,,,,5.000000,0.000000,0.205170,-0.238525,0.690918,0.650879,0.600595,-0.903822,0.027344,-71.788399,-59.904060,46.614418,,,
1629975493.119957,11.000000,0.000000,4373.333496,4234.358887,4149.743652,4120.000000,4336.922852,16208.000000,1.000000,15.000000,,,,0.000000,4.000000,4.000000,4.000000,4.000000,4.000000,100.000000,,,,,,,,,,,,,,,,,,,,1.000000,0.000000,0.000000
1629975493.127772,12.000000,0.000000,4431.794922,4242.563965,4173.333496,4128.205078,4352.820313,450.000000,1.000000,15.000000,,,,0.000000,4.000000,4.000000,4.000000,4.000000,4.000000,100.000000,,,,,,,,6.000000,0.000000,0.208741,-0.239502,0.690430,0.649902,0.590341,-0.897963,0.035645,-71.907036,-59.955009,46.618572,,,
1629975493.135687,13.000000,0.000000,4558.461426,4258.461426,4191.794922,4151.282227,4474.871582,450.000000,1.000000,15.000000,,,,0.000000,4.000000,4.000000,4.000000,4.000000,4.000000,100.000000,,,,,,,,,,,,,,,,,,,,,,
1629975493.143501,14.000000,0.000000,4667.179688,4260.512695,4195.384766,4146.153809,4577.948730,450.000000,1.000000,15.000000,,,,0.000000,4.000000,4.000000,4.000000,4.000000,4.000000,100.000000,,,,,,,,7.000000,0.000000,0.210695,-0.240479,0.690186,0.649170,0.603037,-0.876967,0.035645,-72.073624,-59.941044,46.562500,,,
1629975493.151316,15.000000,0.000000,4661.538574,4253.846191,4205.128418,4138.974121,4545.641113,16208.000000,1.000000,15.000000,,,,0.000000,4.000000,4.000000,4.000000,4.000000,4.000000,100.000000,,,,,,,,,,,,,,,,,,,,,,
1629975493.159030,16.000000,0.000000,4613.846191,4251.282227,4202.563965,4152.820313,4514.871582,0.000000,1.000000,15.000000,,,,0.000000,4.000000,4.000000,4.000000,4.000000,4.000000,100.000000,,,,,,,,8.000000,0.000000,0.214477,-0.241211,0.689453,0.648438,0.604501,-0.861830,0.027344,-72.163734,-59.868660,46.452217,,,
1629975493.166945,17.000000,0.000000,4557.436035,4245.641113,4200.000000,4151.794922,4457.948730,0.000000,1.000000,15.000000,,,,0.000000,4.000000,4.000000,4.000000,4.000000,4.000000,100.000000,,,,,,,,,,,,,,,,,,,,,,
1629975493.174760,18.000000,0.000000,4505.128418,4243.077148,4197.948730,4146.153809,4376.410156,0.000000,1.000000,15.000000,,,,0.000000,4.000000,4.000000,4.000000,4.000000,4.000000,100.000000,,,,,,,,9.000000,0.000000,0.216911,-0.241699,0.689209,0.647705,0.612314,-0.859388,0.032715,-72.364464,-59.683884,46.472595,,,
1629975493.182674,19.000000,0.000000,4475.897461,4244.102539,4196.922852,4153.846191,4385.641113,0.000000,1.000000,15.000000,,,,0.000000,4.000000,4.000000,4.000000,4.000000,4.000000,100.000000,,,,,,,,,,,,,,,,,,,,,,
1629975493.190488,20.000000,0.000000,4446.153809,4244.615234,4200.000000,4150.256348,4401.025879,0.000000,1.000000,15.000000,,,,0.000000,4.000000,4.000000,4.000000,4.000000,4.000000,100.000000,,,,,,,,10.000000,0.000000,0.220080,-0.242188,0.688721,0.646973,0.609384,-0.854505,0.017090,-72.604942,-59.577404,46.431118,,,
1629975493.198403,21.000000,0.000000,4417.436035,4242.563965,4184.615234,4133.333496,4356.410156,0.000000,1.000000,15.000000,,,,0.000000,4.000000,4.000000,4.000000,4.000000,4.000000,100.000000,,,,,,,,,,,,,,,,,,,,,,
1629975493.206217,22.000000,0.000000,4404.615234,4241.538574,4179.487305,4133.846191,4322.051270,0.000000,1.000000,15.000000,,,,0.000000,4.000000,4.000000,4.000000,4.000000,4.000000,100.000000,,,,,,,,11.000000,0.000000,0.223154,-0.242676,0.688477,0.645996,0.615244,-0.842786,0.007324,-72.701736,-59.421753,46.274158,,,
1629975493.214032,23.000000,0.000000,4392.820313,4241.025879,4184.102539,4139.487305,4316.922852,0.000000,1.000000,15.000000,,,,0.000000,4.000000,4.000000,4.000000,4.000000,4.000000,100.000000,,,,,,,,,,,,,,,,,,,,,,
1629975493.221946,24.000000,0.000000,4375.897461,4234.871582,4174.871582,4129.230957,4315.897461,0.000000,1.000000,15.000000,,,,0.000000,4.000000,4.000000,4.000000,4.000000,4.000000,100.000000,,,,,,,,12.000000,0.000000,0.226488,-0.242920,0.687988,0.645264,0.627939,-0.845228,0.024414,-72.729034,-59.341484,46.192711,,,
1629975493.229761,25.000000,0.000000,4376.922852,4231.794922,4178.974121,4132.820313,4327.692383,0.000000,1.000000,15.000000,,,,0.000000,4.000000,4.000000,4.000000,4.000000,4.000000,100.000000,,,,,,,,,,,,,,,,,,,,,,
1629975493.237675,26.000000,0.000000,4393.333496,4234.358887,4186.666504,4149.743652,4356.922852,0.000000,1.000000,15.000000,,,,0.000000,4.000000,4.000000,4.000000,4.000000,4.000000,100.000000,,,,,,,,13.000000,0.000000,0.228519,-0.243652,0.687744,0.644531,0.624033,-0.824720,0.026368,-69.463760,-59.149609,46.179222,,,
1629975493.245490,27.000000,0.000000,4400.512695,4234.358887,4181.025879,4146.153809,4369.230957,0.000000,1.000000,15.000000,,,,0.000000,4.000000,4.000000,4.000000,4.000000,4.000000,100.000000,,,,,,,,,,,,,,,,,,,,1.000000,0.000000,0.000000
1629975493.253404,28.000000,0.000000,4362.051270,4229.230957,4165.641113,4129.743652,4333.333496,0.000000,1.000000,15.000000,,,,0.000000,4.000000,4.000000,4.000000,4.000000,4.000000,100.000000,,,,,,,,14.000000,0.000000,0.231721,-0.244629,0.687012,0.643799,0.612802,-0.816907,0.037598,-70.113937,-58.917110,45.927822,,,
1629975493.261219,29.000000,0.000000,4290.769043,4222.051270,4167.179688,4123.589844,4272.820313,0.000000,1.000000,15.000000,,,,0.000000,4.000000,4.000000,4.000000,4.000000,4.000000,100.000000,,,,,,,,,,,,,,,,,,,,,,
1629975493.269134,30.000000,0.000000,4300.000000,4223.589844,4182.051270,4130.256348,4273.846191,0.000000,1.000000,15.000000,,,,0.000000,4.000000,4.000000,4.000000,4.000000,4.000000,100.000000,,,,,,,,15.000000,0.000000,0.235126,-0.245361,0.686279,0.643066,0.620615,-0.808606,0.039063,-66.990540,-58.767673,45.881008,,,
1629975493.276948,31.000000,0.000000,4377.948730,4224.615234,4167.179688,4135.897461,4326.666504,0.000000,1.000000,15.000000,,,,0.000000,4.000000,4.000000,4.000000,4.000000,4.000000,100.000000,,,,,,,,,,,,,,,,,,,,,,
1629975493.284763,32.000000,0.000000,4399.487305,4222.051270,4169.743652,4138.461426,4345.128418,0.000000,1.000000,15.000000,,,,0.000000,4.000000,4.000000,4.000000,4.000000,4.000000,100.000000,,,,,,,,16.000000,0.000000,0.237817,-0.246094,0.685547,0.642578,0.626963,-0.813977,0.033692,-64.179489,-58.633183,45.779060,,,
1629975493.292477,33.000000,0.000000,4387.179688,4227.179688,4183.589844,4146.666504,4335.897461,0.000000,1.000000,15.000000,,,,0.000000,4.000000,4.000000,4.000000,4.000000,4.000000,100.000000,,,,,,,,,,,,,,,,,,,,,,
1629975493.300292,34.000000,0.000000,4421.538574,4231.794922,4168.205078,4143.589844,4369.743652,0.000000,1.000000,15.000000,,,,0.000000,4.000000,4.000000,4.000000,4.000000,4.000000,100.000000,,,,,,,,17.000000,0.000000,0.241166,-0.246826,0.684570,0.642090,0.612802,-0.821302,0.023926,-61.769169,-58.452324,45.747120,,,
1629975493.308006,35.000000,0.000000,4480.000000,4233.333496,4178.461426,4138.461426,4424.102539,0.000000,1.000000,15.000000,,,,0.000000,4.000000,4.000000,4.000000,4.000000,4.000000,100.000000,,,,,,,,,,,,,,,,,,,,,,
1629975493.315921,36.000000,0.000000,4481.538574,4234.358887,4186.153809,4144.102539,4388.717773,0.000000,1.000000,15.000000,,,,0.000000,4.000000,4.000000,4.000000,4.000000,4.000000,100.000000,,,,,,,,18.000000,0.000000,0.244462,-0.247559,0.683594,0.641602,0.621103,-0.825208,0.014160,-63.069172,-58.169918,45.718376,,,
1629975493.323736,37.000000,0.000000,4448.717773,4229.230957,4175.384766,4143.077148,4374.358887,0.000000,1.000000,15.000000,,,,0.000000,4.000000,4.000000,4.000000,4.000000,4.000000,100.000000,,,,,,,,,,,,,,,,,,,,,,
1629975493.331650,38.000000,0.000000,4526.666504,4232.820313,4190.769043,4147.692383,4544.615234,0.000000,1.000000,15.000000,,,,0.000000,4.000000,4.000000,4.000000,4.000000,4.000000,100.000000,,,,,,,,19.000000,0.000000,0.248521,-0.248779,0.682373,0.640869,0.637705,-0.833509,0.001953,-64.239174,-57.975571,45.513062,,,
1629975493.339465,39.000000,0.000000,4648.205078,4241.025879,4192.820313,4158.461426,4678.461426,0.000000,1.000000,15.000000,,,,0.000000,4.000000,4.000000,4.000000,4.000000,4.000000,100.000000,,,,,,,,,,,,,,,,,,,,,,
1629975493.347379,40.000000,0.000000,4623.077148,4240.000000,4182.051270,4161.538574,4605.641113,0.000000,1.000000,15.000000,,,,0.000000,4.000000,4.000000,4.000000,4.000000,4.000000,100.000000,,,,,,,,20.000000,0.000000,0.252702,-0.249756,0.681396,0.639893,0.645029,-0.831067,-0.010254,-61.763073,-57.681026,45.328278,,,
1629975493.355294,41.000000,0.000000,4597.436035,4243.077148,4187.179688,4165.128418,4574.871582,0.000000,1.000000,15.000000,,,,0.000000,4.000000,4.000000,4.000000,4.000000,4.000000,100.000000,,,,,,,,,,,,,,,,,,,,,,
1629975493.363108,42.000000,0.000000,4631.794922,4243.077148,4194.871582,4161.538574,4625.128418,0.000000,1.000000,15.000000,,,,0.000000,4.000000,4.000000,4.000000,4.000000,4.000000,100.000000,,,,,,,,21.000000,0.000000,0.256974,-0.251221,0.680176,0.638916,0.650401,-0.822278,0.004395,-62.944054,-57.415939,45.341415,,,
1629975493.371023,43.000000,0.000000,4598.974121,4241.538574,4192.820313,4155.897461,4588.717773,0.000000,1.000000,15.000000,,,,0.000000,4.000000,4.000000,4.000000,4.000000,4.000000,100.000000,1.000000,50.000000,1.000000,4.000000,4.000000,4.000000,1.000000,,,,,,,,,,,,,1.000000,0.000000,0.000000
1629975493.378838,44.000000,0.000000,4622.051270,4246.666504,4175.384766,4155.384766,4589.230957,0.000000,1.000000,15.000000,,,,0.000000,4.000000,4.000000,4.000000,4.000000,4.000000,100.000000,,,,,,,,22.000000,0.000000,0.260646,-0.253174,0.679199,0.637695,0.652354,-0.798840,0.004883,-60.537647,-57.296989,45.293427,,,
1629975493.386752,45.000000,0.000000,4713.333496,4247.179688,4189.743652,4161.025879,4664.615234,0.000000,1.000000,15.000000,,,,0.000000,4.000000,4.000000,4.000000,4.000000,4.000000,100.000000,,,,,,,,,,,,,,,,,,,,,,
1629975493.394567,46.000000,0.000000,4675.384766,4243.077148,4201.538574,4161.538574,4630.256348,0.000000,1.000000,15.000000,,,,0.000000,4.000000,4.000000,4.000000,4.000000,4.000000,100.000000,,,,,,,,23.000000,0.000000,0.264087,-0.254639,0.678467,0.636475,0.674327,-0.767590,-0.004395,-58.371883,-56.950672,45.070789,,,
1629975493.402381,47.000000,0.000000,4591.282227,4236.410156,4175.897461,4148.205078,4564.102539,0.000000,1.000000,15.000000,,,,0.000000,4.000000,4.000000,4.000000,4.000000,4.000000,100.000000,,,,,,,,,,,,,,,,,,,,,,
1629975493.410096,48.000000,0.000000,4603.077148,4236.922852,4187.179688,4156.922852,4595.897461,0.000000,1.000000,15.000000,,,,0.000000,4.000000,4.000000,4.000000,4.000000,4.000000,100.000000,,,,,,,,24.000000,0.000000,0.267550,-0.255371,0.677979,0.635254,0.688975,-0.762219,-0.000488,-56.422691,-56.579174,45.049866,,,
1629975493.418011,49.000000,0.000000,4567.692383,4240.512695,4198.461426,4179.487305,4562.051270,0.000000,1.000000,15.000000,,,,0.000000,4.000000,4.000000,4.000000,4.000000,4.000000,100.000000,,,,,,,,,,,,,,,,,,,,,,
1629975493.425825,50.000000,0.000000,4466.153809,4236.410156,4185.128418,4174.871582,4449.230957,0.000000,1.000000,15.000000,,,,0.000000,4.000000,4.000000,4.000000,4.000000,4.000000,100.000000,,,,,,,,25.000000,0.000000,0.271042,-0.255371,0.677734,0.634033,0.684092,-0.741711,0.003906,-58.317158,-56.364456,44.911400,,,
1629975493.433740,51.000000,0.000000,4426.153809,4228.205078,4180.000000,4165.641113,4416.922852,0.000000,1.000000,15.000000,,,,0.000000,4.000000,4.000000,4.000000,4.000000,4.000000,100.000000,,,,,,,,,,,,,,,,,,,,,,
1629975493.441554,52.000000,0.000000,4427.179688,4226.153809,4175.897461,4170.769043,4415.384766,0.000000,1.000000,15.000000,,,,0.000000,4.000000,4.000000,4.000000,4.000000,4.000000,100.000000,,,,,,,,26.000000,0.000000,0.273652,-0.255615,0.677734,0.632813,0.672862,-0.742199,-0.008789,-60.081993,-56.111393,44.846596,,,
1629975493.449369,53.000000,0.000000,4398.974121,4231.794922,4183.077148,4171.794922,4365.641113,0.000000,1.000000,15.000000,,,,0.000000,4.000000,4.000000,4.000000,4.000000,4.000000,100.000000,,,,,,,,,,,,,,,,,,,,,,
1629975493.457084,54.000000,0.000000,4322.563965,4231.282227,4173.333496,4167.692383,4324.102539,0.000000,1.000000,15.000000,,,,0.000000,4.000000,4.000000,4.000000,4.000000,4.000000,100.000000,,,,,,,,27.000000,0.000000,0.277716,-0.256104,0.677490,0.631104,0.695323,-0.766125,-0.013184,-57.961796,-55.943451,44.788273,,,
1629975493.464998,55.000000,0.000000,4288.717773,4227.692383,4166.666504,4171.282227,4324.102539,0.000000,1.000000,15.000000,,,,0.000000,4.000000,4.000000,4.000000,4.000000,4.000000,100.000000,,,,,,,,,,,,,,,,,,,,,,
1629975493.472813,56.000000,0.000000,4342.051270,4235.384766,4181.538574,4181.025879,4320.000000,0.000000,1.000000,15.000000,,,,0.000000,4.000000,4.000000,4.000000,4.000000,4.000000,100.000000,,,,,,,,28.000000,0.000000,0.280635,-0.257080,0.677734,0.629150,0.708995,-0.747082,-0.019043,-59.702351,-55.732491,44.496521,,,
1629975493.480727,57.000000,0.000000,4370.256348,4237.436035,4174.358887,4180.512695,4303.589844,0.000000,1.000000,15.000000,,,,0.000000,4.000000,4.000000,4.000000,4.000000,4.000000,100.000000,,,,,,,,,,,,,,,,,,,,,,
1629975493.488542,58.000000,0.000000,4324.615234,4238.461426,4180.512695,4182.051270,4312.307617,0.000000,1.000000,15.000000,,,,0.000000,4.000000,4.000000,4.000000,4.000000,4.000000,100.000000,,,,,,,,29.000000,0.000000,0.283506,-0.258057,0.677979,0.627197,0.704112,-0.713878,-0.015137,-61.268852,-55.363178,44.533024,,,
1629975493.496456,59.000000,0.000000,4298.974121,4244.615234,4185.641113,4191.282227,4324.615234,0.000000,1.000000,15.000000,,,,0.000000,4.000000,4.000000,4.000000,4.000000,4.000000,100.000000,,,,,,,,,,,,,,,,,,,,1.000000,0.000000,0.000000
1629975493.504371,60.000000,0.000000,4331.282227,4245.641113,4174.871582,4196.410156,4303.077148,0.000000,1.000000,15.000000,,,,0.000000,4.000000,4.000000,4.000000,4.000000,4.000000,100.000000,,,,,,,,30.000000,0.000000,0.285928,-0.258789,0.678711,0.625000,0.717784,-0.675792,-0.000488,-59.209412,-55.150425,44.565872,,,
1629975493.512186,61.000000,0.000000,4335.384766,4254.358887,4193.333496,4209.230957,4305.641113,0.000000,1.000000,15.000000,,,,0.000000,4.000000,4.000000,4.000000,4.000000,4.000000,100.000000,,,,,,,,,,,,,,,,,,,,,,
1629975493.520101,62.000000,0.000000,4275.384766,4254.871582,4197.436035,4213.846191,4343.077148,0.000000,1.000000,15.000000,,,,0.000000,4.000000,4.000000,4.000000,4.000000,4.000000,100.000000,,,,,,,,31.000000,0.000000,0.287692,-0.259033,0.679443,0.623291,0.706554,-0.655772,-0.002441,-57.355915,-54.899136,44.475807,,,
1629975493.527916,63.000000,0.000000,4227.692383,4250.256348,4194.358887,4215.897461,4305.641113,0.000000,1.000000,15.000000,,,,0.000000,4.000000,4.000000,4.000000,4.000000,4.000000,100.000000,,,,,,,,,,,,,,,,,,,,,,
1629975493.535731,64.000000,0.000000,4240.512695,4268.717773,4203.589844,4233.333496,4243.589844,450.000000,1.000000,15.000000,,,,0.000000,4.000000,4.000000,4.000000,4.000000,4.000000,100.000000,,,,,,,,32.000000,0.000000,0.289264,-0.259521,0.679932,0.621826,0.721691,-0.632334,0.014160,-59.216877,-54.672974,44.334934,,,
1629975493.543645,65.000000,0.000000,4261.538574,4280.000000,4202.563965,4236.410156,4287.692383,450.000000,1.000000,15.000000,,,,0.000000,4.000000,4.000000,4.000000,4.000000,4.000000,100.000000,,,,,,,,,,,,,,,,,,,,,,
1629975493.551460,66.000000,0.000000,4258.461426,4281.025879,4214.358887,4230.769043,4352.307617,16204.000000,1.000000,15.000000,,,,0.000000,4.000000,4.000000,4.000000,4.000000,4.000000,100.000000,,,,,,,,33.000000,0.000000,0.285928,-0.258789,0.678711,0.625000,0.717784,-0.675792,-0.000488,-60.951553,-54.409615,44.208145,,,
1629975493.559274,67.000000,0.000000,4255.384766,4290.256348,4216.922852,4234.871582,4327.179688,450.000000,1.000000,15.000000,,,,0.000000,4.000000,4.000000,4.000000,4.000000,4.000000,100.000000,,,,,,,,,,,,,,,,,,,,,,
1629975493.567089,68.000000,0.000000,4264.102539,4289.743652,4216.410156,4242.051270,4276.922852,16208.000000,1.000000,15.000000,,,,0.000000,4.000000,4.000000,4.000000,4.000000,4.000000,100.000000,,,,,,,,34.000000,0.000000,0.289264,-0.259521,0.679932,0.621826,0.721691,-0.632334,0.014160,-62.452950,-54.232407,44.094036,,,
1629975493.574804,69.000000,0.000000,4253.333496,4289.230957,4223.589844,4253.333496,4251.282227,450.000000,1.000000,15.000000,,,,0.000000,4.000000,4.000000,4.000000,4.000000,4.000000,100.000000,,,,,,,,,,,,,,,,,,,,,,
1629975493.582618,70.000000,0.000000,4235.897461,4303.589844,4225.128418,4259.487305,4268.205078,16212.000000,1.000000,15.000000,,,,0.000000,4.000000,4.000000,4.000000,4.000000,4.000000,100.000000,,,,,,,,35.000000,0.000000,0.290650,-0.260254,0.680176,0.620605,0.717296,-0.632822,0.021485,-63.744392,-53.953285,43.931526,,,
1629975493.590333,71.000000,0.000000,4263.589844,4310.769043,4237.436035,4261.538574,4330.256348,450.000000,1.000000,15.000000,,,,0.000000,4.000000,4.000000,4.000000,4.000000,4.000000,100.000000,,,,,,,,,,,,,,,,,,,,,,
1629975493.598247,72.000000,0.000000,4278.461426,4305.128418,4237.436035,4264.102539,4326.666504,450.000000,1.000000,15.000000,,,,0.000000,4.000000,4.000000,4.000000,4.000000,4.000000,100.000000,,,,,,,,36.000000,0.000000,0.292809,-0.260742,0.680176,0.619385,0.729503,-0.604990,0.015625,-61.257950,-53.761894,43.785263,,,
1629975493.606062,73.000000,0.000000,4265.641113,4311.282227,4243.589844,4271.794922,4262.563965,16195.000000,1.000000,15.000000,,,,0.000000,4.000000,4.000000,4.000000,4.000000,4.000000,100.000000,,,,,,,,,,,,,,,,,,,,,,
1629975493.613976,74.000000,0.000000,4289.743652,4324.102539,4256.410156,4284.615234,4291.794922,450.000000,1.000000,15.000000,,,,0.000000,4.000000,4.000000,4.000000,4.000000,4.000000,100.000000,,,,,,,,37.000000,0.000000,0.293971,-0.261230,0.679932,0.618896,0.734874,-0.574228,0.012696,-62.668892,-53.649456,43.653629,,,
1629975493.621791,75.000000,0.000000,4303.077148,4323.589844,4248.205078,4286.666504,4349.743652,16210.000000,1.000000,15.000000,,,,0.000000,4.000000,4.000000,4.000000,4.000000,4.000000,100.000000,,,,,,,,,,,,,,,,,,,,1.000000,0.000000,0.000000
1629975493.629705,76.000000,0.000000,4268.717773,4329.743652,4265.641113,4291.794922,4325.641113,450.000000,1.000000,15.000000,,,,0.000000,4.000000,4.000000,4.000000,4.000000,4.000000,100.000000,,,,,,,,38.000000,0.000000,0.294780,-0.261475,0.679932,0.618408,0.746105,-0.580575,-0.001953,-63.878925,-53.667892,43.594971,,,
1629975493.637620,77.000000,0.000000,4273.846191,4342.051270,4283.589844,4307.179688,4320.512695,450.000000,1.000000,15.000000,,,,0.000000,4.000000,4.000000,4.000000,4.000000,4.000000,100.000000,,,,,,,,,,,,,,,,,,,,,,
1629975493.645435,78.000000,0.000000,4332.820313,4338.974121,4273.846191,4309.230957,4363.589844,450.000000,1.000000,15.000000,,,,0.000000,4.000000,4.000000,4.000000,4.000000,4.000000,100.000000,,,,,,,,39.000000,0.000000,0.295421,-0.261963,0.679688,0.618164,0.732433,-0.606455,-0.004395,-65.027771,-53.505043,43.542179,,,
1629975493.653350,79.000000,0.000000,4358.974121,4340.512695,4269.743652,4305.128418,4407.179688,16210.000000,1.000000,15.000000,,,,0.000000,4.000000,4.000000,4.000000,4.000000,4.000000,100.000000,,,,,,,,,,,,,,,,,,,,,,
1629975493.661165,80.000000,0.000000,4312.307617,4348.717773,4277.948730,4311.794922,4414.871582,450.000000,1.000000,15.000000,,,,0.000000,4.000000,4.000000,4.000000,4.000000,4.000000,100.000000,,,,,,,,40.000000,0.000000,0.296911,-0.262695,0.679199,0.617676,0.763195,-0.640635,-0.003418,-66.061729,-53.358475,43.674114,,,
1629975493.668980,81.000000,0.000000,4254.871582,4341.538574,4300.000000,4320.000000,4365.128418,450.000000,1.000000,15.000000,,,,0.000000,4.000000,4.000000,4.000000,4.000000,4.000000,100.000000,,,,,,,,,,,,,,,,,,,,,,
1629975493.676894,82.000000,0.000000,4271.794922,4336.410156,4332.307617,4322.051270,4347.692383,450.000000,1.000000,15.000000,,,,0.000000,4.000000,4.000000,4.000000,4.000000,4.000000,100.000000,,,,,,,,41.000000,0.000000,0.299018,-0.263916,0.678467,0.616943,0.771496,-0.622568,-0.008789,-67.052109,-53.166748,43.792854,,,
1629975493.684709,83.000000,0.000000,4327.179688,4348.717773,4296.922852,4319.487305,4402.563965,16210.000000,1.000000,15.000000,,,,0.000000,4.000000,4.000000,4.000000,4.000000,4.000000,100.000000,,,,,,,,,,,,,,,,,,,,,,
1629975493.692623,84.000000,0.000000,4317.436035,4337.436035,4242.563965,4298.974121,4429.743652,450.000000,1.000000,15.000000,,,,0.000000,4.000000,4.000000,4.000000,4.000000,4.000000,100.000000,,,,,,,,42.000000,0.000000,0.301052,-0.265137,0.677979,0.615967,0.780285,-0.593759,-0.017090,-67.823814,-52.814751,43.780090,,,
1629975493.700438,85.000000,0.000000,4283.077148,4347.179688,4432.820313,4341.025879,4412.307617,450.000000,1.000000,15.000000,,,,0.000000,4.000000,4.000000,4.000000,4.000000,4.000000,100.000000,,,,,,,,,,,,,,,,,,,,,,
1629975493.708353,86.000000,0.000000,4332.307617,4393.846191,4230.769043,4375.384766,4451.282227,450.000000,1.000000,15.000000,,,,0.000000,4.000000,4.000000,4.000000,4.000000,4.000000,100.000000,,,,,,,,43.000000,0.000000,0.302783,-0.266113,0.677490,0.615234,0.817395,-0.546883,-0.011719,-68.637985,-52.737209,43.768604,,,
1629975493.716167,87.000000,0.000000,4402.563965,4390.256348,3843.589844,4298.461426,4508.205078,16210.000000,1.000000,15.000000,,,,0.000000,4.000000,4.000000,4.000000,4.000000,4.000000,100.000000,,,,,,,,,,,,,,,,,,,,,,
1629975493.724082,88.000000,0.000000,4423.589844,4434.358887,4333.846191,4353.333496,4530.256348,450.000000,1.000000,15.000000,,,,0.000000,4.000000,4.000000,4.000000,4.000000,4.000000,100.000000,,,,,,,,44.000000,0.000000,0.304332,-0.266602,0.677490,0.614258,0.791516,-0.516609,-0.016114,-69.310921,-52.607613,43.818081,,,
1629975493.731896,89.000000,0.000000,4391.282227,4464.615234,4530.769043,4421.538574,4510.256348,450.000000,1.000000,15.000000,,,,0.000000,4.000000,4.000000,4.000000,4.000000,4.000000,100.000000,,,,,,,,,,,,,,,,,,,,,,
1629975493.739811,90.000000,0.000000,4352.307617,4412.307617,4267.692383,4361.025879,4485.641113,450.000000,1.000000,15.000000,,,,0.000000,4.000000,4.000000,4.000000,4.000000,4.000000,100.000000,,,,,,,,45.000000,0.000000,0.305102,-0.266846,0.677490,0.613770,0.772961,-0.544930,0.000000,-70.036201,-52.610603,43.742981,,,
1629975493.747626,91.000000,0.000000,4373.333496,4428.717773,4431.282227,4386.666504,4503.077148,16210.000000,1.000000,15.000000,,,,0.000000,4.000000,4.000000,4.000000,4.000000,4.000000,100.000000,,,,,,,,,,,,,,,,,,,,1.000000,0.000000,0.000000
1629975493.755340,92.000000,0.000000,4386.153809,4446.153809,4421.538574,4408.717773,4524.102539,450.000000,1.000000,15.000000,,,,0.000000,4.000000,4.000000,4.000000,4.000000,4.000000,100.000000,,,,,,,,46.000000,0.000000,0.306094,-0.267334,0.677734,0.612793,0.823743,-0.566903,-0.010742,-70.688942,-52.553478,43.615574,,,
1629975493.763155,93.000000,0.000000,4420.000000,4434.358887,4367.692383,4406.666504,4572.820313,450.000000,1.000000,15.000000,,,,0.000000,4.000000,4.000000,4.000000,4.000000,4.000000,100.000000,,,,,,,,,,,,,,,,,,,,,,
1629975493.770869,94.000000,0.000000,4526.153809,4448.205078,4428.205078,4435.897461,4620.512695,450.000000,1.000000,15.000000,,,,0.000000,4.000000,4.000000,4.000000,4.000000,4.000000,100.000000,,,,,,,,47.000000,0.000000,0.307677,-0.268311,0.677734,0.611572,0.828626,-0.565927,-0.019532,-71.216599,-52.502068,43.560722,,,
1629975493.778784,95.000000,0.000000,4523.077148,4461.025879,4423.589844,4444.102539,4571.794922,16210.000000,1.000000,15.000000,,,,0.000000,4.000000,4.000000,4.000000,4.000000,4.000000,100.000000,,,,,,,,,,,,,,,,,,,,,,
1629975493.786598,96.000000,0.000000,4411.794922,4482.563965,4466.153809,4470.256348,4521.025879,450.000000,1.000000,15.000000,,,,0.000000,4.000000,4.000000,4.000000,4.000000,4.000000,100.000000,,,,,,,,48.000000,0.000000,0.308651,-0.268799,0.677979,0.610596,0.842786,-0.532723,-0.006348,-71.631676,-52.395981,43.511356,,,
1629975493.794413,97.000000,0.000000,4457.436035,4506.153809,4482.051270,4495.384766,4609.743652,450.000000,1.000000,15.000000,,,,0.000000,4.000000,4.000000,4.000000,4.000000,4.000000,100.000000,,,,,,,,,,,,,,,,,,,,,,
1629975493.802127,98.000000,0.000000,4664.615234,4539.487305,4515.897461,4511.282227,4773.846191,450.000000,1.000000,15.000000,,,,0.000000,4.000000,4.000000,4.000000,4.000000,4.000000,100.000000,,,,,,,,49.000000,0.000000,0.309405,-0.269531,0.678223,0.609619,0.843275,-0.539559,-0.006348,-72.005249,-52.240692,43.466927,,,
1629975493.810042,99.000000,0.000000,4729.230957,4577.436035,4562.563965,4533.333496,4825.128418,16210.000000,1.000000,15.000000,,,,0.000000,4.000000,4.000000,4.000000,4.000000,4.000000,100.000000,,,,,,,,,,,,,,,,,,,,,,
1629975493.817857,100.000000,0.000000,4623.589844,4598.461426,4581.025879,4554.358887,4726.153809,450.000000,1.000000,15.000000,,,,0.000000,4.000000,4.000000,4.000000,4.000000,4.000000,100.000000,,,,,,,,50.000000,0.000000,0.309137,-0.270264,0.678711,0.608887,0.829602,-0.542489,0.009766,-72.341461,-52.041111,43.426941,,,
1629975493.825771,101.000000,0.000000,4627.692383,4610.769043,4600.000000,4571.794922,4714.871582,450.000000,1.000000,15.000000,,,,0.000000,4.000000,4.000000,4.000000,4.000000,4.000000,100.000000,,,,,,,,,,,,,,,,,,,,,,
1629975493.833586,102.000000,0.000000,4728.717773,4630.769043,4615.384766,4589.743652,4849.743652,450.000000,1.000000,15.000000,,,,0.000000,4.000000,4.000000,4.000000,4.000000,4.000000,100.000000,,,,,,,,51.000000,0.000000,0.309881,-0.270996,0.678955,0.607910,0.816907,-0.568856,0.025391,-72.524414,-52.040939,43.390953,,,
1629975493.841500,103.000000,0.000000,4730.256348,4643.077148,4636.922852,4607.692383,4853.846191,16210.000000,1.000000,15.000000,,,,0.000000,4.000000,4.000000,4.000000,4.000000,4.000000,100.000000,,,,,,,,,,,,,,,,,,,,,,
1629975493.849315,104.000000,0.000000,4673.846191,4634.358887,4640.512695,4611.282227,4747.179688,450.000000,1.000000,15.000000,,,,0.000000,4.000000,4.000000,4.000000,4.000000,4.000000,100.000000,,,,,,,,52.000000,0.000000,0.310461,-0.271973,0.678955,0.607178,0.828626,-0.564950,0.004395,-72.748894,-51.921150,43.358562,,,
1629975493.857230,105.000000,0.000000,4661.025879,4628.717773,4633.846191,4603.589844,4775.384766,450.000000,1.000000,15.000000,,,,0.000000,4.000000,4.000000,4.000000,4.000000,4.000000,100.000000,,,,,,,,,,,,,,,,,,,,,,
1629975493.865044,106.000000,0.000000,4692.307617,4640.000000,4647.179688,4599.487305,4871.282227,450.000000,1.000000,15.000000,,,,0.000000,4.000000,4.000000,4.000000,4.000000,4.000000,100.000000,,,,,,,,53.000000,0.000000,0.310821,-0.273193,0.678955,0.606445,0.813489,-0.545907,0.025879,-73.010742,-51.932972,43.449043,,,
1629975493.872959,107.000000,0.000000,4748.205078,4651.794922,4657.948730,4603.077148,4871.794922,16210.000000,1.000000,15.000000,,,,0.000000,4.000000,4.000000,4.000000,4.000000,4.000000,100.000000,1.000000,16.666666,1.000000,3.000000,0.000000,3.000000,1.000000,,,,,,,,,,,,,1.000000,0.000000,0.000000
1629975493.880873,108.000000,0.000000,4763.077148,4661.025879,4684.615234,4620.000000,4841.538574,450.000000,1.000000,15.000000,,,,0.000000,4.000000,4.000000,4.000000,4.000000,4.000000,100.000000,,,,,,,,54.000000,0.000000,0.311388,-0.274170,0.678955,0.605713,0.819837,-0.557137,0.032715,-73.246407,-51.764164,43.530476,,,
1629975493.888688,109.000000,0.000000,4706.153809,4674.871582,4712.307617,4634.871582,4823.077148,450.000000,1.000000,15.000000,,,,0.000000,4.000000,4.000000,4.000000,4.000000,4.000000,100.000000,,,,,,,,,,,,,,,,,,,,,,
1629975493.896603,110.000000,0.000000,4689.743652,4689.230957,4711.794922,4632.307617,4793.333496,450.000000,1.000000,15.000000,,,,0.000000,4.000000,4.000000,4.000000,4.000000,4.000000,100.000000,,,,,,,,55.000000,0.000000,0.311735,-0.275391,0.678955,0.604980,0.817884,-0.547860,0.041016,-73.398682,-51.672054,43.484135,,,
1629975493.904418,111.000000,0.000000,4748.205078,4706.153809,4724.102539,4635.384766,4847.179688,16210.000000,1.000000,15.000000,,,,0.000000,4.000000,4.000000,4.000000,4.000000,4.000000,100.000000,,,,,,,,,,,,,,,,,,,,,,
1629975493.912332,112.000000,0.000000,4786.153809,4720.512695,4743.589844,4656.922852,4911.282227,450.000000,1.000000,15.000000,,,,0.000000,4.000000,4.000000,4.000000,4.000000,4.000000,100.000000,,,,,,,,56.000000,0.000000,0.311818,-0.276367,0.678955,0.604492,0.816907,-0.555184,0.052247,-73.655365,-51.648972,43.562057,,,
1629975493.920147,113.000000,0.000000,4785.128418,4735.897461,4754.358887,4680.000000,4828.205078,450.000000,1.000000,15.000000,,,,0.000000,4.000000,4.000000,4.000000,4.000000,4.000000,100.000000,,,,,,,,,,,,,,,,,,,,,,
1629975493.928061,114.000000,0.000000,4804.615234,4754.871582,4763.589844,4688.717773,4797.948730,450.000000,1.000000,15.000000,,,,0.000000,4.000000,4.000000,4.000000,4.000000,4.000000,100.000000,,,,,,,,57.000000,0.000000,0.312369,-0.277344,0.678955,0.603760,0.854505,-0.549813,0.048341,-70.237648,-51.628197,43.632191,,,
1629975493.935876,115.000000,0.000000,4841.538574,4760.512695,4771.282227,4690.256348,4905.128418,16210.000000,1.000000,15.000000,,,,0.000000,4.000000,4.000000,4.000000,4.000000,4.000000,100.000000,,,,,,,,,,,,,,,,,,,,,,
1629975493.943790,116.000000,0.000000,4853.333496,4772.307617,4788.717773,4697.436035,4952.307617,450.000000,1.000000,15.000000,,,,0.000000,4.000000,4.000000,4.000000,4.000000,4.000000,100.000000,,,,,,,,58.000000,0.000000,0.312131,-0.278076,0.679199,0.603271,0.865248,-0.552254,0.050782,-67.101883,-51.609497,43.695309,,,
1629975493.951705,117.000000,0.000000,4819.487305,4795.384766,4794.358887,4696.410156,4903.077148,450.000000,1.000000,15.000000,,,,0.000000,4.000000,4.000000,4.000000,4.000000,4.000000,100.000000,,,,,,,,,,,,,,,,,,,,,,
1629975493.959520,118.000000,0.000000,4794.871582,4812.307617,4800.512695,4695.897461,4858.974121,450.000000,1.000000,15.000000,,,,0.000000,4.000000,4.000000,4.000000,4.000000,4.000000,100.000000,,,,,,,,59.000000,0.000000,0.312638,-0.278564,0.679199,0.602783,0.833997,-0.573251,0.061524,-67.928429,-51.473038,43.572670,,,
1629975493.967435,119.000000,0.000000,4852.820313,4833.846191,4833.846191,4720.512695,4899.487305,16210.000000,1.000000,15.000000,,,,0.000000,4.000000,4.000000,4.000000,4.000000,4.000000,100.000000,,,,,,,,,,,,,,,,,,,,,,
1629975493.975250,120.000000,0.000000,4909.230957,4875.897461,4871.794922,4760.512695,4965.641113,450.000000,1.000000,15.000000,,,,0.000000,4.000000,4.000000,4.000000,4.000000,4.000000,100.000000,,,,,,,,60.000000,0.000000,0.312361,-0.278809,0.679443,0.602539,0.839368,-0.584970,0.066407,-68.672318,-51.410042,43.522106,,,
1629975493.983165,121.000000,0.000000,4942.563965,4941.538574,4924.615234,4821.025879,5010.769043,450.000000,1.000000,15.000000,,,,0.000000,4.000000,4.000000,4.000000,4.000000,4.000000,100.000000,,,,,,,,,,,,,,,,,,,,,,
1629975493.990979,122.000000,0.000000,5036.410156,5020.512695,4997.436035,4899.487305,5076.922852,450.000000,1.000000,15.000000,,,,0.000000,4.000000,4.000000,4.000000,4.000000,4.000000,100.000000,,,,,,,,61.000000,0.000000,0.312143,-0.279053,0.679443,0.602539,0.802747,-0.620615,0.062501,-69.341827,-51.353344,43.476604,,,
1629975493.998894,123.000000,0.000000,5148.717773,5088.717773,5069.230957,4961.025879,5171.794922,16210.000000,1.000000,15.000000,,,,0.000000,4.000000,4.000000,4.000000,4.000000,4.000000,100.000000,,,,,,,,,,,,,,,,,,,,1.000000,0.000000,0.000000
1629975494.006709,124.000000,0.000000,5194.358887,5123.077148,5100.000000,4988.205078,5225.128418,450.000000,1.000000,15.000000,,,,0.000000,4.000000,4.000000,4.000000,4.000000,4.000000,100.000000,,,,,,,,62.000000,0.000000,0.312926,-0.279297,0.679199,0.602295,0.794934,-0.631846,0.061524,-66.295639,-51.302315,43.435650,,,
1629975494.014624,125.000000,0.000000,5173.333496,5131.282227,5085.128418,4993.846191,5221.025879,450.000000,1.000000,15.000000,,,,0.000000,4.000000,4.000000,4.000000,4.000000,4.000000,100.000000,,,,,,,,,,,,,,,,,,,,,,
1629975494.022439,126.000000,0.000000,5142.563965,5137.948730,5100.000000,5003.589844,5221.538574,450.000000,1.000000,15.000000,,,,0.000000,4.000000,4.000000,4.000000,4.000000,4.000000,100.000000,,,,,,,,63.000000,0.000000,0.313019,-0.279785,0.678955,0.602295,0.816907,-0.619150,0.058106,-63.554077,-51.316204,43.458607,,,
1629975494.030354,127.000000,0.000000,5172.307617,5136.922852,5113.333496,5004.615234,5222.051270,232.000000,1.000000,15.000000,,,,0.000000,4.000000,4.000000,4.000000,4.000000,4.000000,100.000000,,,,,,,,,,,,,,,,,,,,,,
1629975494.038168,0.000000,0.000000,5179.487305,5124.102539,5085.641113,4986.153809,5210.769043,450.000000,1.000000,15.000000,,,,0.000000,4.000000,4.000000,4.000000,4.000000,4.000000,100.000000,,,,,,,,0.000000,0.000000,0.313673,-0.280762,0.678467,0.602051,0.829602,-0.621103,0.054200,-61.146481,-51.268890,43.539082,,,
1629975494.046083,1.000000,0.000000,5085.128418,5111.794922,5077.436035,4977.948730,5174.358887,450.000000,1.000000,15.000000,,,,0.000000,4.000000,4.000000,4.000000,4.000000,4.000000,100.000000,,,,,,,,,,,,,,,,,,,,,,
1629975494.053898,2.000000,0.000000,5086.153809,5104.615234,5089.743652,4976.410156,5174.358887,16209.000000,1.000000,15.000000,,,,0.000000,4.000000,4.000000,4.000000,4.000000,4.000000,100.000000,,,,,,,,1.000000,0.000000,0.313633,-0.281982,0.677979,0.602051,0.827649,-0.606455,0.051759,-58.979649,-51.166492,43.551697,,,
1629975494.061813,3.000000,0.000000,5228.205078,5112.307617,5092.820313,4970.256348,5252.307617,450.000000,1.000000,15.000000,,,,0.000000,4.000000,4.000000,4.000000,4.000000,4.000000,100.000000,,,,,,,,,,,,,,,,,,,,,,
1629975494.069628,4.000000,0.000000,5221.025879,5121.025879,5071.794922,4965.641113,5245.128418,16204.000000,1.000000,15.000000,,,,0.000000,4.000000,4.000000,4.000000,4.000000,4.000000,100.000000,,,,,,,,2.000000,0.000000,0.313019,-0.279785,0.678955,0.602295,0.816907,-0.619150,0.058106,-60.618420,-51.014519,43.563049,,,
1629975494.077543,5.000000,0.000000,5082.563965,5112.307617,5055.384766,4964.615234,5170.769043,450.000000,1.000000,15.000000,,,,0.000000,4.000000,4.000000,4.000000,4.000000,4.000000,100.000000,,,,,,,,,,,,,,,,,,,,,,
1629975494.085357,6.000000,0.000000,5099.487305,5108.717773,5075.384766,4967.692383,5188.205078,16182.000000,1.000000,15.000000,,,,0.000000,4.000000,4.000000,4.000000,4.000000,4.000000,100.000000,,,,,,,,3.000000,0.000000,0.313633,-0.281982,0.677979,0.602051,0.827649,-0.606455,0.051759,-58.504391,-50.937557,43.573265,,,
1629975494.093272,7.000000,0.000000,5167.179688,5120.000000,5077.436035,4967.692383,5171.282227,450.000000,1.000000,15.000000,,,,0.000000,4.000000,4.000000,4.000000,4.000000,4.000000,100.000000,,,,,,,,,,,,,,,,,,,,,,
1629975494.101087,8.000000,0.000000,5086.153809,5120.000000,5058.974121,4956.922852,5078.974121,450.000000,1.000000,15.000000,,,,0.000000,4.000000,4.000000,4.000000,4.000000,4.000000,100.000000,,,,,,,,4.000000,0.000000,0.314116,-0.283203,0.677246,0.602051,0.826673,-0.600595,0.061524,-60.190689,-50.808475,43.582458,,,
1629975494.109002,9.000000,0.000000,5026.153809,5105.641113,5046.666504,4936.410156,5109.230957,16179.000000,1.000000,15.000000,,,,0.000000,4.000000,4.000000,4.000000,4.000000,4.000000,100.000000,,,,,,,,,,,,,,,,,,,,,,
1629975494.116816,10.000000,0.000000,5113.333496,5101.025879,5027.692383,4929.743652,5201.538574,450.000000,1.000000,15.000000,,,,0.000000,4.000000,4.000000,4.000000,4.000000,4.000000,100.000000,,,,,,,,5.000000,0.000000,0.314894,-0.284668,0.676270,0.602051,0.815442,-0.600107,0.047364,-61.768169,-50.752121,43.530922,,,
1629975494.124731,11.000000,0.000000,5177.948730,5110.256348,5003.077148,4934.358887,5174.871582,16205.000000,1.000000,15.000000,,,,0.000000,4.000000,4.000000,4.000000,4.000000,4.000000,100.000000,,,,,,,,,,,,,,,,,,,,1.000000,0.000000,0.000000
1629975494.132646,12.000000,0.000000,5101.538574,5110.256348,4994.358887,4927.179688,5129.230957,450.000000,1.000000,15.000000,,,,0.000000,4.000000,4.000000,4.000000,4.000000,4.000000,100.000000,,,,,,,,6.000000,0.000000,0.315662,-0.286133,0.675293,0.602051,0.811536,-0.579599,0.047364,-59.539169,-50.641582,43.604164,,,
1629975494.140461,13.000000,0.000000,5056.922852,5106.153809,5006.153809,4933.846191,5178.974121,450.000000,1.000000,15.000000,,,,0.000000,4.000000,4.000000,4.000000,4.000000,4.000000,100.000000,,,,,,,,,,,,,,,,,,,,,,
1629975494.148375,14.000000,0.000000,5123.589844,5113.333496,5016.922852,4949.743652,5200.512695,450.000000,1.000000,15.000000,,,,0.000000,4.000000,4.000000,4.000000,4.000000,4.000000,100.000000,,,,,,,,7.000000,0.000000,0.316417,-0.287598,0.674316,0.602051,0.816419,-0.551278,0.044434,-61.121986,-50.601917,43.550457,,,
1629975494.156190,15.000000,0.000000,5154.358887,5117.436035,5016.410156,4945.641113,5154.358887,16205.000000,1.000000,15.000000,,,,0.000000,4.000000,4.000000,4.000000,4.000000,4.000000,100.000000,,,,,,,,,,,,,,,,,,,,,,
1629975494.164105,16.000000,0.000000,5077.436035,5117.436035,4980.512695,4944.615234,5126.666504,0.000000,1.000000,15.000000,,,,0.000000,4.000000,4.000000,4.000000,4.000000,4.000000,100.000000,,,,,,,,8.000000,0.000000,0.317161,-0.289063,0.673340,0.602051,0.817395,-0.542977,0.025879,-62.546524,-50.506401,43.681561,,,
1629975494.171920,17.000000,0.000000,5006.666504,5120.512695,4940.512695,4942.563965,5108.205078,0.000000,1.000000,15.000000,,,,0.000000,4.000000,4.000000,4.000000,4.000000,4.000000,100.000000,,,,,,,,,,,,,,,,,,,,,,
1629975494.179835,18.000000,0.000000,5067.692383,5121.538574,4933.333496,4926.666504,5123.077148,0.000000,1.000000,15.000000,,,,0.000000,4.000000,4.000000,4.000000,4.000000,4.000000,100.000000,,,,,,,,9.000000,0.000000,0.318117,-0.290283,0.672363,0.602051,0.807141,-0.560067,0.018555,-60.239685,-50.420433,43.739742,,,
1629975494.187650,19.000000,0.000000,5109.230957,5125.128418,4922.051270,4924.615234,5151.794922,0.000000,1.000000,15.000000,,,,0.000000,4.000000,4.000000,4.000000,4.000000,4.000000,100.000000,,,,,,,,,,,,,,,,,,,,,,
1629975494.195564,20.000000,0.000000,5055.384766,5138.974121,4926.153809,4946.153809,5152.307617,0.000000,1.000000,15.000000,,,,0.000000,4.000000,4.000000,4.000000,4.000000,4.000000,100.000000,,,,,,,,10.000000,0.000000,0.319454,-0.291016,0.671631,0.601807,0.819837,-0.554696,0.011719,-58.103718,-50.402882,43.732292,,,
1629975494.203379,21.000000,0.000000,5100.000000,5146.666504,4947.692383,4958.974121,5174.871582,0.000000,1.000000,15.000000,,,,0.000000,4.000000,4.000000,4.000000,4.000000,4.000000,100.000000,,,,,,,,,,,,,,,,,,,,,,
1629975494.211294,22.000000,0.000000,5206.666504,5138.461426,4946.666504,4946.153809,5203.589844,0.000000,1.000000,15.000000,,,,0.000000,4.000000,4.000000,4.000000,4.000000,4.000000,100.000000,,,,,,,,11.000000,0.000000,0.320271,-0.291748,0.671143,0.601563,0.854017,-0.548348,0.003906,-56.181343,-50.147823,43.785400,,,
1629975494.219109,23.000000,0.000000,5184.615234,5139.487305,4955.384766,4947.179688,5193.333496,0.000000,1.000000,15.000000,,,,0.000000,4.000000,4.000000,4.000000,4.000000,4.000000,100.000000,,,,,,,,,,,,,,,,,,,,,,
1629975494.226924,24.000000,0.000000,5074.871582,5147.179688,4972.307617,4965.641113,5164.615234,0.000000,1.000000,15.000000,,,,0.000000,4.000000,4.000000,4.000000,4.000000,4.000000,100.000000,,,,,,,,12.000000,0.000000,0.320114,-0.292480,0.670898,0.601563,0.846693,-0.546395,0.015625,-58.040131,-50.037899,43.593933,,,
1629975494.234639,25.000000,0.000000,5031.794922,5154.871582,4970.256348,4972.820313,5120.512695,0.000000,1.000000,15.000000,,,,0.000000,4.000000,4.000000,4.000000,4.000000,4.000000,100.000000,,,,,,,,,,,,,,,,,,,,,,
1629975494.242553,26.000000,0.000000,5084.615234,5170.256348,4976.410156,4969.743652,5115.897461,0.000000,1.000000,15.000000,,,,0.000000,4.000000,4.000000,4.000000,4.000000,4.000000,100.000000,,,,,,,,13.000000,0.000000,0.320179,-0.292969,0.670654,0.601563,0.834485,-0.557626,0.029786,-59.772854,-49.938972,43.601063,,,
1629975494.250368,27.000000,0.000000,5143.077148,5167.179688,4977.948730,4966.666504,5193.846191,0.000000,1.000000,15.000000,,,,0.000000,4.000000,4.000000,4.000000,4.000000,4.000000,100.000000,,,,,,,,,,,,,,,,,,,,1.000000,0.000000,0.000000
1629975494.258283,28.000000,0.000000,5092.307617,5142.563965,4950.769043,4956.922852,5199.487305,0.000000,1.000000,15.000000,,,,0.000000,4.000000,4.000000,4.000000,4.000000,4.000000,100.000000,,,,,,,,14.000000,0.000000,0.319335,-0.293945,0.670410,0.601807,0.834485,-0.585458,0.034180,-61.272488,-49.969563,43.607479,,,
1629975494.266198,29.000000,0.000000,5019.487305,5138.974121,4949.743652,4944.615234,5110.256348,0.000000,1.000000,15.000000,,,,0.000000,4.000000,4.000000,4.000000,4.000000,4.000000,100.000000,,,,,,,,,,,,,,,,,,,,,,
1629975494.274013,30.000000,0.000000,5083.589844,5146.666504,4967.692383,4947.692383,5129.743652,0.000000,1.000000,15.000000,,,,0.000000,4.000000,4.000000,4.000000,4.000000,4.000000,100.000000,,,,,,,,15.000000,0.000000,0.318999,-0.294922,0.669922,0.602051,0.834974,-0.589853,0.045899,-62.801605,-49.817654,43.732883,,,
1629975494.281928,31.000000,0.000000,5153.846191,5138.461426,4969.230957,4952.820313,5211.282227,0.000000,1.000000,15.000000,,,,0.000000,4.000000,4.000000,4.000000,4.000000,4.000000,100.000000,,,,,,,,,,,,,,,,,,,,,,
1629975494.289743,32.000000,0.000000,5076.410156,5130.256348,4969.230957,4946.153809,5143.077148,0.000000,1.000000,15.000000,,,,0.000000,4.000000,4.000000,4.000000,4.000000,4.000000,100.000000,,,,,,,,16.000000,0.000000,0.318667,-0.296387,0.669434,0.602051,0.810071,-0.588876,0.042969,-64.058182,-49.740746,43.785931,,,
1629975494.297658,33.000000,0.000000,4986.153809,5126.666504,4958.974121,4936.922852,5006.153809,0.000000,1.000000,15.000000,,,,0.000000,4.000000,4.000000,4.000000,4.000000,4.000000,100.000000,,,,,,,,,,,,,,,,,,,,,,
1629975494.305472,34.000000,0.000000,4986.153809,5116.922852,4962.051270,4933.846191,5045.128418,0.000000,1.000000,15.000000,,,,0.000000,4.000000,4.000000,4.000000,4.000000,4.000000,100.000000,,,,,,,,17.000000,0.000000,0.317864,-0.297852,0.668945,0.602295,0.792004,-0.591806,0.045411,-61.540363,-49.492088,43.594414,,,
1629975494.313287,35.000000,0.000000,5015.897461,5094.358887,4949.230957,4919.487305,5162.563965,0.000000,1.000000,15.000000,,,,0.000000,4.000000,4.000000,4.000000,4.000000,4.000000,100.000000,,,,,,,,,,,,,,,,,,,,,,
1629975494.321202,36.000000,0.000000,5036.410156,5069.230957,4908.717773,4896.922852,5123.077148,0.000000,1.000000,15.000000,,,,0.000000,4.000000,4.000000,4.000000,4.000000,4.000000,100.000000,,,,,,,,18.000000,0.000000,0.318258,-0.299072,0.668213,0.602295,0.797375,-0.589364,0.043458,-59.274326,-49.387924,43.541679,,,
1629975494.329016,37.000000,0.000000,5003.589844,5057.436035,4902.051270,4885.128418,5013.333496,0.000000,1.000000,15.000000,,,,0.000000,4.000000,4.000000,4.000000,4.000000,4.000000,100.000000,,,,,,,,,,,,,,,,,,,,,,
1629975494.336931,38.000000,0.000000,4931.794922,5046.666504,4894.358887,4865.641113,4997.948730,0.000000,1.000000,15.000000,,,,0.000000,4.000000,4.000000,4.000000,4.000000,4.000000,100.000000,,,,,,,,19.000000,0.000000,0.317953,-0.300537,0.667480,0.602539,0.781262,-0.579599,0.050294,-60.763996,-49.353989,43.434402,,,
1629975494.344846,39.000000,0.000000,4919.487305,5036.922852,4881.538574,4846.153809,4998.461426,0.000000,1.000000,15.000000,,,,0.000000,4.000000,4.000000,4.000000,4.000000,4.000000,100.000000,,,,,,,,,,,,,,,,,,,,,,
1629975494.352661,40.000000,0.000000,4955.384766,5029.230957,4873.333496,4843.589844,4976.922852,0.000000,1.000000,15.000000,,,,0.000000,4.000000,4.000000,4.000000,4.000000,4.000000,100.000000,,,,,,,,20.000000,0.000000,0.317590,-0.301514,0.666992,0.602783,0.792493,-0.586435,0.054200,-62.164520,-49.502899,43.397667,,,
1629975494.360575,41.000000,0.000000,4943.077148,5020.000000,4857.948730,4841.538574,5005.128418,0.000000,1.000000,15.000000,,,,0.000000,4.000000,4.000000,4.000000,4.000000,4.000000,100.000000,,,,,,,,,,,,,,,,,,,,,,
1629975494.368390,42.000000,0.000000,4901.025879,5014.358887,4869.743652,4845.128418,4962.563965,0.000000,1.000000,15.000000,,,,0.000000,4.000000,4.000000,4.000000,4.000000,4.000000,100.000000,,,,,,,,21.000000,0.000000,0.317919,-0.302246,0.666504,0.602783,0.791028,-0.573251,0.053712,-59.836067,-49.397652,43.364609,,,
1629975494.376305,43.000000,0.000000,4873.333496,5005.128418,4880.000000,4850.256348,4876.410156,0.000000,1.000000,15.000000,,,,0.000000,4.000000,4.000000,4.000000,4.000000,4.000000,100.000000,1.000000,8.333333,1.000000,0.000000,0.000000,1.000000,1.000000,,,,,,,,,,,,,1.000000,0.000000,0.000000
1629975494.384120,44.000000,0.000000,4870.256348,4991.282227,4860.512695,4842.563965,4934.358887,0.000000,1.000000,15.000000,,,,0.000000,4.000000,4.000000,4.000000,4.000000,4.000000,100.000000,,,,,,,,22.000000,0.000000,0.317966,-0.302734,0.666260,0.602783,0.806653,-0.573739,0.050782,-61.329380,-49.362747,43.394669,,,
1629975494.392035,45.000000,0.000000,4908.205078,4984.615234,4850.256348,4831.282227,5039.487305,0.000000,1.000000,15.000000,,,,0.000000,4.000000,4.000000,4.000000,4.000000,4.000000,100.000000,,,,,,,,,,,,,,,,,,,,,,
1629975494.399850,46.000000,0.000000,4910.256348,4989.743652,4865.128418,4827.179688,4997.436035,0.000000,1.000000,15.000000,,,,0.000000,4.000000,4.000000,4.000000,4.000000,4.000000,100.000000,,,,,,,,23.000000,0.000000,0.317221,-0.302979,0.666504,0.602783,0.820325,-0.588876,0.032227,-62.733177,-49.331333,43.421722,,,
1629975494.407665,47.000000,0.000000,4876.410156,4992.820313,4870.256348,4831.794922,4892.307617,0.000000,1.000000,15.000000,,,,0.000000,4.000000,4.000000,4.000000,4.000000,4.000000,100.000000,,,,,,,,,,,,,,,,,,,,,,
1629975494.415379,48.000000,0.000000,4870.769043,4983.589844,4850.256348,4832.307617,4896.410156,0.000000,1.000000,15.000000,,,,0.000000,4.000000,4.000000,4.000000,4.000000,4.000000,100.000000,,,,,,,,24.000000,0.000000,0.317405,-0.302734,0.666748,0.602539,0.818372,-0.604013,0.029297,-64.176041,-49.183430,43.565704,,,
1629975494.423294,49.000000,0.000000,4874.871582,4973.846191,4838.461426,4824.102539,4963.589844,0.000000,1.000000,15.000000,,,,0.000000,4.000000,4.000000,4.000000,4.000000,4.000000,100.000000,,,,,,,,,,,,,,,,,,,,,,
1629975494.431209,50.000000,0.000000,4860.000000,4965.641113,4833.846191,4802.563965,4923.077148,0.000000,1.000000,15.000000,,,,0.000000,4.000000,4.000000,4.000000,4.000000,4.000000,100.000000,,,,,,,,25.000000,0.000000,0.317539,-0.302002,0.667236,0.602295,0.806165,-0.609384,0.015137,-65.235359,-49.169945,43.575653,,,
1629975494.439024,51.000000,0.000000,4829.230957,4951.282227,4811.282227,4781.025879,4826.666504,0.000000,1.000000,15.000000,,,,0.000000,4.000000,4.000000,4.000000,4.000000,4.000000,100.000000,,,,,,,,,,,,,,,,,,,,,,
1629975494.446839,52.000000,0.000000,4820.000000,4935.897461,4791.794922,4771.794922,4864.615234,0.000000,1.000000,15.000000,,,,0.000000,4.000000,4.000000,4.000000,4.000000,4.000000,100.000000,,,,,,,,26.000000,0.000000,0.317158,-0.300781,0.667969,0.602295,0.800305,-0.624033,0.012696,-66.248558,-49.097996,43.524796,,,
1629975494.454754,53.000000,0.000000,4798.461426,4924.615234,4781.025879,4765.128418,4907.179688,0.000000,1.000000,15.000000,,,,0.000000,4.000000,4.000000,4.000000,4.000000,4.000000,100.000000,,,,,,,,,,,,,,,,,,,,,,
1629975494.462569,54.000000,0.000000,4764.615234,4915.897461,4772.820313,4761.538574,4838.461426,0.000000,1.000000,15.000000,,,,0.000000,4.000000,4.000000,4.000000,4.000000,4.000000,100.000000,,,,,,,,27.000000,0.000000,0.317000,-0.299316,0.668701,0.602295,0.833997,-0.630869,0.001953,-67.160439,-49.033241,43.538837,,,
1629975494.470484,55.000000,0.000000,4821.538574,4909.743652,4767.179688,4757.948730,4849.743652,0.000000,1.000000,15.000000,,,,0.000000,4.000000,4.000000,4.000000,4.000000,4.000000,100.000000,,,,,,,,,,,,,,,,,,,,,,
1629975494.478299,56.000000,0.000000,4826.666504,4908.205078,4752.820313,4748.205078,4831.282227,0.000000,1.000000,15.000000,,,,0.000000,4.000000,4.000000,4.000000,4.000000,4.000000,100.000000,,,,,,,,28.000000,0.000000,0.316088,-0.298096,0.669678,0.602295,0.831556,-0.603525,0.019043,-64.392212,-49.034775,43.491661,,,
1629975494.486213,57.000000,0.000000,4690.769043,4907.692383,4749.743652,4743.077148,4714.871582,0.000000,1.000000,15.000000,,,,0.000000,4.000000,4.000000,4.000000,4.000000,4.000000,100.000000,,,,,,,,,,,,,,,,,,,,,,
1629975494.494028,58.000000,0.000000,4716.922852,4901.025879,4756.922852,4739.487305,4796.410156,0.000000,1.000000,15.000000,,,,0.000000,4.000000,4.000000,4.000000,4.000000,4.000000,100.000000,,,,,,,,29.000000,0.000000,0.314698,-0.296875,0.670654,0.602539,0.813489,-0.627939,0.020020,-65.370094,-48.916527,43.449200,,,
1629975494.501942,59.000000,0.000000,4884.102539,4887.692383,4743.589844,4725.128418,4961.538574,0.000000,1.000000,15.000000,,,,0.000000,4.000000,4.000000,4.000000,4.000000,4.000000,100.000000,,,,,,,,,,,,,,,,,,,,1.000000,0.000000,0.000000
1629975494.509757,60.000000,0.000000,4824.102539,4877.436035,4711.794922,4706.153809,4848.205078,0.000000,1.000000,15.000000,,,,0.000000,4.000000,4.000000,4.000000,4.000000,4.000000,100.000000,,,,,,,,30.000000,0.000000,0.313586,-0.295898,0.671387,0.602783,0.810071,-0.641611,0.025879,-66.369820,-48.929737,43.530617,,,
1629975494.517672,61.000000,0.000000,4645.128418,4871.794922,4702.563965,4700.512695,4649.230957,0.000000,1.000000,15.000000,,,,0.000000,4.000000,4.000000,4.000000,4.000000,4.000000,100.000000,,,,,,,,,,,,,,,,,,,,,,
1629975494.525586,62.000000,0.000000,4644.102539,4863.077148,4713.333496,4701.538574,4725.641113,0.000000,1.000000,15.000000,,,,0.000000,4.000000,4.000000,4.000000,4.000000,4.000000,100.000000,,,,,,,,31.000000,0.000000,0.312991,-0.294922,0.671875,0.603027,0.799817,-0.638682,0.042969,-63.800285,-49.061253,43.663708,,,
1629975494.533401,63.000000,0.000000,4720.000000,4852.307617,4696.922852,4686.153809,4870.769043,0.000000,1.000000,15.000000,,,,0.000000,4.000000,4.000000,4.000000,4.000000,4.000000,100.000000,,,,,,,,,,,,,,,,,,,,,,
1629975494.541316,64.000000,0.000000,4710.256348,4851.794922,4680.000000,4681.025879,4764.102539,450.000000,1.000000,15.000000,,,,0.000000,4.000000,4.000000,4.000000,4.000000,4.000000,100.000000,,,,,,,,32.000000,0.000000,0.311621,-0.293701,0.672607,0.603516,0.778820,-0.650401,0.036622,-64.897179,-49.059986,43.723675,,,
1629975494.549131,65.000000,0.000000,4687.692383,4856.410156,4690.256348,4701.025879,4666.153809,450.000000,1.000000,15.000000,,,,0.000000,4.000000,4.000000,4.000000,4.000000,4.000000,100.000000,,,,,,,,,,,,,,,,,,,,,,
1629975494.556946,66.000000,0.000000,4723.589844,4844.102539,4690.769043,4695.384766,4814.871582,16214.000000,1.000000,15.000000,,,,0.000000,4.000000,4.000000,4.000000,4.000000,4.000000,100.000000,,,,,,,,33.000000,0.000000,0.310523,-0.292236,0.673096,0.604248,0.789075,-0.641611,0.029297,-65.824562,-48.999035,43.777645,,,
1629975494.564661,67.000000,0.000000,4724.615234,4823.077148,4673.846191,4674.871582,4874.871582,450.000000,1.000000,15.000000,,,,0.000000,4.000000,4.000000,4.000000,4.000000,4.000000,100.000000,,,,,,,,,,,,,,,,,,,,,,
1629975494.572475,68.000000,0.000000,4639.487305,4813.333496,4671.794922,4673.846191,4721.538574,16205.000000,1.000000,15.000000,,,,0.000000,4.000000,4.000000,4.000000,4.000000,4.000000,100.000000,,,,,,,,34.000000,0.000000,0.309127,-0.291016,0.673828,0.604736,0.772961,-0.636728,0.032227,-66.659210,-49.063805,43.886032,,,
1629975494.580190,69.000000,0.000000,4610.256348,4805.641113,4664.615234,4673.846191,4687.692383,450.000000,1.000000,15.000000,,,,0.000000,4.000000,4.000000,4.000000,4.000000,4.000000,100.000000,,,,,,,,,,,,,,,,,,,,,,
1629975494.588105,70.000000,0.000000,4646.666504,4781.538574,4629.743652,4651.282227,4723.077148,16186.000000,1.000000,15.000000,,,,0.000000,4.000000,4.000000,4.000000,4.000000,4.000000,100.000000,,,,,,,,35.000000,0.000000,0.311621,-0.293701,0.672607,0.603516,0.778820,-0.650401,0.036622,-67.470215,-49.062286,43.923767,,,
1629975494.595920,71.000000,0.000000,4638.974121,4769.230957,4648.205078,4641.538574,4668.717773,450.000000,1.000000,15.000000,,,,0.000000,4.000000,4.000000,4.000000,4.000000,4.000000,100.000000,,,,,,,,,,,,,,,,,,,,,,
1629975494.603834,72.000000,0.000000,4615.897461,4787.692383,4618.461426,4653.846191,4651.282227,450.000000,1.000000,15.000000,,,,0.000000,4.000000,4.000000,4.000000,4.000000,4.000000,100.000000,,,,,,,,36.000000,0.000000,0.309127,-0.291016,0.673828,0.604736,0.772961,-0.636728,0.032227,-68.140297,-49.120731,44.017544,,,
1629975494.611649,73.000000,0.000000,4609.743652,4794.358887,4466.153809,4640.000000,4698.461426,16181.000000,1.000000,15.000000,,,,0.000000,4.000000,4.000000,4.000000,4.000000,4.000000,100.000000,,,,,,,,,,,,,,,,,,,,,,
1629975494.619564,74.000000,0.000000,4660.512695,4791.794922,4438.974121,4631.794922,4769.230957,450.000000,1.000000,15.000000,,,,0.000000,4.000000,4.000000,4.000000,4.000000,4.000000,100.000000,,,,,,,,37.000000,0.000000,0.308002,-0.289551,0.674316,0.605469,0.784680,-0.671397,0.026856,-68.803185,-49.113518,43.982311,,,
1629975494.627379,75.000000,0.000000,4738.974121,4792.820313,4545.128418,4645.128418,4783.589844,16203.000000,1.000000,15.000000,,,,0.000000,4.000000,4.000000,4.000000,4.000000,4.000000,100.000000,,,,,,,,,,,,,,,,,,,,1.000000,0.000000,0.000000
1629975494.635294,76.000000,0.000000,4687.692383,4777.436035,4553.846191,4636.922852,4674.358887,450.000000,1.000000,15.000000,,,,0.000000,4.000000,4.000000,4.000000,4.000000,4.000000,100.000000,,,,,,,,38.000000,0.000000,0.306634,-0.288330,0.674805,0.606201,0.799817,-0.686046,0.026368,-69.519417,-49.166843,43.830971,,,
1629975494.643109,77.000000,0.000000,4563.589844,4760.000000,4522.051270,4617.948730,4606.153809,450.000000,1.000000,15.000000,,,,0.000000,4.000000,4.000000,4.000000,4.000000,4.000000,100.000000,,,,,,,,,,,,,,,,,,,,,,
1629975494.651023,78.000000,0.000000,4585.128418,4756.410156,4548.717773,4609.230957,4690.769043,450.000000,1.000000,15.000000,,,,0.000000,4.000000,4.000000,4.000000,4.000000,4.000000,100.000000,,,,,,,,39.000000,0.000000,0.304712,-0.287109,0.675537,0.606934,0.814466,-0.687999,0.026856,-66.575104,-49.274647,43.754578,,,
1629975494.658838,79.000000,0.000000,4687.692383,4738.461426,4538.974121,4598.974121,4759.487305,16203.000000,1.000000,15.000000,,,,0.000000,4.000000,4.000000,4.000000,4.000000,4.000000,100.000000,,,,,,,,,,,,,,,,,,,,,,
1629975494.666752,80.000000,0.000000,4652.820313,4711.282227,4520.000000,4592.307617,4680.512695,450.000000,1.000000,15.000000,,,,0.000000,4.000000,4.000000,4.000000,4.000000,4.000000,100.000000,,,,,,,,40.000000,0.000000,0.303055,-0.285645,0.676025,0.607910,0.804211,-0.696300,0.025879,-67.514145,-49.371674,43.745644,,,
1629975494.674567,81.000000,0.000000,4541.025879,4701.538574,4526.666504,4586.153809,4569.743652,450.000000,1.000000,15.000000,,,,0.000000,4.000000,4.000000,4.000000,4.000000,4.000000,100.000000,,,,,,,,,,,,,,,,,,,,,,
1629975494.682482,82.000000,0.000000,4496.922852,4694.358887,4503.077148,4573.333496,4554.358887,450.000000,1.000000,15.000000,,,,0.000000,4.000000,4.000000,4.000000,4.000000,4.000000,100.000000,,,,,,,,41.000000,0.000000,0.300773,-0.284180,0.677002,0.608643,0.779797,-0.709484,0.028809,-64.770363,-49.518814,43.677784,,,
1629975494.690296,83.000000,0.000000,4495.897461,4680.000000,4495.897461,4573.846191,4581.538574,16203.000000,1.000000,15.000000,,,,0.000000,4.000000,4.000000,4.000000,4.000000,4.000000,100.000000,,,,,,,,,,,,,,,,,,,,,,
1629975494.698211,84.000000,0.000000,4504.102539,4666.153809,4487.179688,4565.128418,4582.051270,450.000000,1.000000,15.000000,,,,0.000000,4.000000,4.000000,4.000000,4.000000,4.000000,100.000000,,,,,,,,42.000000,0.000000,0.299513,-0.282715,0.677734,0.609131,0.761242,-0.708507,0.031739,-62.360771,-49.591423,43.736343,,,
1629975494.706025,85.000000,0.000000,4489.230957,4650.769043,4466.666504,4543.589844,4545.128418,450.000000,1.000000,15.000000,,,,0.000000,4.000000,4.000000,4.000000,4.000000,4.000000,100.000000,,,,,,,,,,,,,,,,,,,,,,
1629975494.713840,86.000000,0.000000,4436.410156,4621.538574,4454.358887,4532.820313,4456.410156,450.000000,1.000000,15.000000,,,,0.000000,4.000000,4.000000,4.000000,4.000000,4.000000,100.000000,,,,,,,,43.000000,0.000000,0.297181,-0.281250,0.678711,0.609863,0.752453,-0.715831,0.040040,-60.132324,-49.716587,43.669415,,,
1629975494.721755,87.000000,0.000000,4417.436035,4599.487305,4440.512695,4527.692383,4421.538574,16203.000000,1.000000,15.000000,,,,0.000000,4.000000,4.000000,4.000000,4.000000,4.000000,100.000000,,,,,,,,,,,,,,,,,,,,,,
1629975494.729570,88.000000,0.000000,4444.102539,4602.051270,4442.051270,4524.102539,4515.897461,450.000000,1.000000,15.000000,,,,0.000000,4.000000,4.000000,4.000000,4.000000,4.000000,100.000000,,,,,,,,44.000000,0.000000,0.295381,-0.279785,0.679443,0.610596,0.762707,-0.723156,0.036133,-58.066906,-49.948864,43.609180,,,
1629975494.737485,89.000000,0.000000,4447.179688,4598.461426,4444.615234,4517.436035,4583.589844,450.000000,1.000000,15.000000,,,,0.000000,4.000000,4.000000,4.000000,4.000000,4.000000,100.000000,,,,,,,,,,,,,,,,,,,,,,
1629975494.745299,90.000000,0.000000,4411.794922,4580.000000,4416.410156,4503.077148,4502.051270,450.000000,1.000000,15.000000,,,,0.000000,4.000000,4.000000,4.000000,4.000000,4.000000,100.000000,,,,,,,,45.000000,0.000000,0.293269,-0.278564,0.680420,0.611084,0.774914,-0.712413,0.042969,-59.617504,-50.157913,43.614784,,,
1629975494.753214,91.000000,0.000000,4387.692383,4563.589844,4391.282227,4481.538574,4385.641113,16203.000000,1.000000,15.000000,,,,0.000000,4.000000,4.000000,4.000000,4.000000,4.000000,100.000000,,,,,,,,,,,,,,,,,,,,1.000000,0.000000,0.000000
1629975494.761029,92.000000,0.000000,4408.717773,4561.025879,4404.615234,4483.077148,4389.230957,450.000000,1.000000,15.000000,,,,0.000000,4.000000,4.000000,4.000000,4.000000,4.000000,100.000000,,,,,,,,46.000000,0.000000,0.290959,-0.277588,0.681152,0.611816,0.750011,-0.722179,0.033204,-57.543755,-50.286243,43.679642,,,
1629975494.768944,93.000000,0.000000,4425.128418,4560.512695,4376.410156,4478.974121,4457.436035,450.000000,1.000000,15.000000,,,,0.000000,4.000000,4.000000,4.000000,4.000000,4.000000,100.000000,,,,,,,,,,,,,,,,,,,,,,
1629975494.776759,94.000000,0.000000,4425.641113,4562.051270,4312.820313,4451.282227,4487.692383,450.000000,1.000000,15.000000,,,,0.000000,4.000000,4.000000,4.000000,4.000000,4.000000,100.000000,,,,,,,,47.000000,0.000000,0.289716,-0.276611,0.681641,0.612305,0.741222,-0.738781,0.053223,-59.326115,-50.401741,43.678200,,,
1629975494.784674,95.000000,0.000000,4453.333496,4565.128418,4200.512695,4434.871582,4482.051270,16203.000000,1.000000,15.000000,,,,0.000000,4.000000,4.000000,4.000000,4.000000,4.000000,100.000000,,,,,,,,,,,,,,,,,,,,,,
1629975494.792488,96.000000,0.000000,4422.563965,4557.436035,4160.000000,4433.846191,4439.487305,450.000000,1.000000,15.000000,,,,0.000000,4.000000,4.000000,4.000000,4.000000,4.000000,100.000000,,,,,,,,48.000000,0.000000,0.288572,-0.276123,0.681885,0.612793,0.737804,-0.725597,0.027832,-60.810608,-50.445873,43.676903,,,
1629975494.800403,97.000000,0.000000,4363.589844,4550.256348,4276.922852,4446.666504,4397.948730,450.000000,1.000000,15.000000,,,,0.000000,4.000000,4.000000,4.000000,4.000000,4.000000,100.000000,,,,,,,,,,,,,,,,,,,,,,
1629975494.808218,98.000000,0.000000,4424.615234,4530.769043,4287.692383,4433.333496,4445.128418,450.000000,1.000000,15.000000,,,,0.000000,4.000000,4.000000,4.000000,4.000000,4.000000,100.000000,,,,,,,,49.000000,0.000000,0.287188,-0.275879,0.682129,0.613281,0.752941,-0.723156,0.043946,-58.617546,-50.485592,43.675732,,,
1629975494.816133,99.000000,0.000000,4431.282227,4494.358887,4246.153809,4404.615234,4471.282227,16203.000000,1.000000,15.000000,,,,0.000000,4.000000,4.000000,4.000000,4.000000,4.000000,100.000000,,,,,,,,,,,,,,,,,,,,,,
1629975494.823948,100.000000,0.000000,4290.769043,4461.538574,4284.615234,4393.333496,4365.641113,450.000000,1.000000,15.000000,,,,0.000000,4.000000,4.000000,4.000000,4.000000,4.000000,100.000000,,,,,,,,50.000000,0.000000,0.285507,-0.275391,0.682373,0.614014,0.743664,-0.716808,0.038575,-56.823235,-50.640968,43.734497,,,
1629975494.831862,101.000000,0.000000,4271.794922,4430.769043,4266.153809,4370.769043,4288.717773,450.000000,1.000000,15.000000,,,,0.000000,4.000000,4.000000,4.000000,4.000000,4.000000,100.000000,,,,,,,,,,,,,,,,,,,,,,
1629975494.839677,102.000000,0.000000,4335.897461,4407.692383,4232.820313,4346.153809,4293.333496,450.000000,1.000000,15.000000,,,,0.000000,4.000000,4.000000,4.000000,4.000000,4.000000,100.000000,,,,,,,,51.000000,0.000000,0.284049,-0.274658,0.682617,0.614746,0.739757,-0.714855,0.050294,-55.208359,-50.900440,43.727570,,,
1629975494.847592,103.000000,0.000000,4267.179688,4388.717773,4250.769043,4332.820313,4282.051270,16203.000000,1.000000,15.000000,,,,0.000000,4.000000,4.000000,4.000000,4.000000,4.000000,100.000000,,,,,,,,,,,,,,,,,,,,,,
1629975494.855407,104.000000,0.000000,4203.077148,4365.641113,4229.743652,4311.282227,4282.563965,450.000000,1.000000,15.000000,,,,0.000000,4.000000,4.000000,4.000000,4.000000,4.000000,100.000000,,,,,,,,52.000000,0.000000,0.282874,-0.274170,0.682861,0.615234,0.733898,-0.752453,0.048829,-53.635338,-51.074150,43.840965,,,
1629975494.863322,105.000000,0.000000,4234.871582,4353.333496,4198.461426,4295.897461,4310.769043,450.000000,1.000000,15.000000,,,,0.000000,4.000000,4.000000,4.000000,4.000000,4.000000,100.000000,,,,,,,,,,,,,,,,,,,,,,
1629975494.871236,106.000000,0.000000,4215.897461,4335.897461,4213.846191,4292.820313,4240.512695,450.000000,1.000000,15.000000,,,,0.000000,4.000000,4.000000,4.000000,4.000000,4.000000,100.000000,,,,,,,,53.000000,0.000000,0.282284,-0.273682,0.682861,0.615723,0.717296,-0.746105,0.042481,-55.748722,-51.170670,43.883205,,,
1629975494.879051,107.000000,0.000000,4127.692383,4292.307617,4167.692383,4261.025879,4106.153809,16203.000000,1.000000,15.000000,,,,0.000000,4.000000,4.000000,4.000000,4.000000,4.000000,100.000000,1.000000,0.000000,1.000000,0.000000,0.000000,1.000000,0.000000,,,,,,,,,,,,,1.000000,0.000000,0.000000
1629975494.886966,108.000000,0.000000,4098.461426,4265.641113,4122.051270,4226.153809,4117.948730,450.000000,1.000000,15.000000,,,,0.000000,4.000000,4.000000,4.000000,4.000000,4.000000,100.000000,,,,,,,,54.000000,0.000000,0.281099,-0.273193,0.683105,0.616211,0.733410,-0.754894,0.038575,-54.241295,-51.377171,43.861408,,,
1629975494.894781,109.000000,0.000000,4141.538574,4256.410156,4120.512695,4211.282227,4219.487305,450.000000,1.000000,15.000000,,,,0.000000,4.000000,4.000000,4.000000,4.000000,4.000000,100.000000,,,,,,,,,,,,,,,,,,,,,,
1629975494.902696,110.000000,0.000000,4132.307617,4229.230957,4090.256348,4191.794922,4173.846191,450.000000,1.000000,15.000000,,,,0.000000,4.000000,4.000000,4.000000,4.000000,4.000000,100.000000,,,,,,,,55.000000,0.000000,0.279367,-0.272705,0.683350,0.616943,0.718273,-0.747570,0.044923,-56.473534,-51.443390,44.021233,,,
1629975494.910511,111.000000,0.000000,4054.358887,4217.436035,4082.564209,4189.230957,4044.615479,16203.000000,1.000000,15.000000,,,,0.000000,4.000000,4.000000,4.000000,4.000000,4.000000,100.000000,,,,,,,,,,,,,,,,,,,,,,
1629975494.918425,112.000000,0.000000,4036.410156,4219.487305,4081.538574,4191.282227,4051.794922,450.000000,1.000000,15.000000,,,,0.000000,4.000000,4.000000,4.000000,4.000000,4.000000,100.000000,,,,,,,,56.000000,0.000000,0.278764,-0.272217,0.683350,0.617432,0.718761,-0.765637,0.040528,-54.714180,-51.622620,44.105263,,,
1629975494.926240,113.000000,0.000000,4070.256348,4198.461426,4047.692383,4164.102539,4115.384766,450.000000,1.000000,15.000000,,,,0.000000,4.000000,4.000000,4.000000,4.000000,4.000000,100.000000,,,,,,,,,,,,,,,,,,,,,,
1629975494.934155,114.000000,0.000000,4047.179443,4178.461426,4030.256348,4141.025879,4097.948730,450.000000,1.000000,15.000000,,,,0.000000,4.000000,4.000000,4.000000,4.000000,4.000000,100.000000,,,,,,,,57.000000,0.000000,0.277862,-0.271973,0.683594,0.617676,0.718761,-0.776379,0.041505,-56.719681,-51.604481,44.180889,,,
1629975494.941970,115.000000,0.000000,4000.000000,4169.230957,4030.769287,4138.461426,4049.743652,16203.000000,1.000000,15.000000,,,,0.000000,4.000000,4.000000,4.000000,4.000000,4.000000,100.000000,,,,,,,,,,,,,,,,,,,,,,
1629975494.949885,116.000000,0.000000,3993.846191,4141.025879,4004.102539,4120.000000,4011.281982,450.000000,1.000000,15.000000,,,,0.000000,4.000000,4.000000,4.000000,4.000000,4.000000,100.000000,,,,,,,,58.000000,0.000000,0.277195,-0.271484,0.683838,0.617920,0.730480,-0.786145,0.048829,-54.935711,-51.767597,44.129322,,,
1629975494.957700,117.000000,0.000000,3967.692383,4098.461426,3957.435791,4082.051270,3975.384521,450.000000,1.000000,15.000000,,,,0.000000,4.000000,4.000000,4.000000,4.000000,4.000000,100.000000,,,,,,,,,,,,,,,,,,,,,,
1629975494.965514,118.000000,0.000000,3895.384521,4062.564209,3940.000000,4057.948730,3926.153809,450.000000,1.000000,15.000000,,,,0.000000,4.000000,4.000000,4.000000,4.000000,4.000000,100.000000,,,,,,,,59.000000,0.000000,0.276525,-0.270996,0.684082,0.618164,0.729503,-0.790539,0.039063,-53.330139,-51.794777,44.023094,,,
1629975494.973229,119.000000,0.000000,3851.281982,4004.615479,3886.666748,4006.666748,3870.769287,16203.000000,1.000000,15.000000,,,,0.000000,4.000000,4.000000,4.000000,4.000000,4.000000,100.000000,,,,,,,,,,,,,,,,,,,,,,
1629975494.981144,120.000000,0.000000,3786.153809,3896.923096,3767.692383,3897.948730,3795.897461,450.000000,1.000000,15.000000,,,,0.000000,4.000000,4.000000,4.000000,4.000000,4.000000,100.000000,,,,,,,,60.000000,0.000000,0.276340,-0.270508,0.684570,0.617920,0.733898,-0.795911,0.041993,-52.064571,-51.938866,44.047123,,,
1629975494.988959,121.000000,0.000000,3660.000000,3802.051270,3695.384521,3807.179443,3688.718018,450.000000,1.000000,15.000000,,,,0.000000,4.000000,4.000000,4.000000,4.000000,4.000000,100.000000,,,,,,,,,,,,,,,,,,,,,,
1629975494.996874,122.000000,0.000000,3576.923096,3758.974365,3629.743652,3766.153809,3582.051270,450.000000,1.000000,15.000000,,,,0.000000,4.000000,4.000000,4.000000,4.000000,4.000000,100.000000,,,,,,,,61.000000,0.000000,0.276154,-0.270020,0.685059,0.617676,0.728038,-0.810071,0.038087,-54.335033,-52.128361,44.008934,,,
1629975495.004689,123.000000,0.000000,3565.128174,3730.769287,3584.102539,3738.974365,3554.871826,16203.000000,1.000000,15.000000,,,,0.000000,4.000000,4.000000,4.000000,4.000000,4.000000,100.000000,,,,,,,,,,,,,,,,,,,,1.000000,0.000000,0.000000
1629975495.012603,124.000000,0.000000,3556.410156,3698.461426,3604.102539,3721.025635,3585.641113,450.000000,1.000000,15.000000,,,,0.000000,4.000000,4.000000,4.000000,4.000000,4.000000,100.000000,,,,,,,,62.000000,0.000000,0.276094,-0.270020,0.685303,0.617432,0.739269,-0.802747,0.045899,-56.438267,-52.239094,43.974560,,,
1629975495.020418,125.000000,0.000000,3537.435791,3675.897461,3579.487061,3710.769287,3571.794922,450.000000,1.000000,15.000000,,,,0.000000,4.000000,4.000000,4.000000,4.000000,4.000000,100.000000,,,,,,,,,,,,,,,,,,,,,,
1629975495.028333,126.000000,0.000000,3521.025635,3674.871826,3566.666748,3710.256348,3547.692383,450.000000,1.000000,15.000000,,,,0.000000,4.000000,4.000000,4.000000,4.000000,4.000000,100.000000,,,,,,,,63.000000,0.000000,0.275973,-0.270020,0.685791,0.616943,0.728038,-0.788098,0.042481,-58.151730,-52.278934,44.003441,,,
1629975495.036248,127.000000,0.000000,3485.128174,3668.205078,3578.461426,3711.794922,3538.461426,232.000000,1.000000,15.000000,,,,0.000000,4.000000,4.000000,4.000000,4.000000,4.000000,100.000000,,,,,,,,,,,,,,,,,,,,,,
1629975495.044063,0.000000,0.000000,3491.281982,3653.333252,3561.025635,3710.256348,3510.256348,450.000000,1.000000,15.000000,,,,0.000000,4.000000,4.000000,4.000000,4.000000,4.000000,100.000000,,,,,,,,0.000000,0.000000,0.276395,-0.270020,0.686279,0.616211,0.728038,-0.760754,0.050294,-56.284370,-52.374611,44.089249,,,
1629975495.051977,1.000000,0.000000,3534.871826,3655.384521,3555.897461,3707.179443,3509.230713,450.000000,1.000000,15.000000,,,,0.000000,4.000000,4.000000,4.000000,4.000000,4.000000,100.000000,,,,,,,,,,,,,,,,,,,,,,
1629975495.059792,2.000000,0.000000,3513.846191,3659.487061,3547.179443,3691.794922,3544.102539,16232.000000,1.000000,15.000000,,,,0.000000,4.000000,4.000000,4.000000,4.000000,4.000000,100.000000,,,,,,,,1.000000,0.000000,0.276270,-0.270020,0.686768,0.615723,0.750988,-0.754406,0.053223,-58.192669,-52.281269,44.106663,,,
1629975495.067707,3.000000,0.000000,3489.743652,3651.794922,3542.564209,3691.281982,3544.615479,450.000000,1.000000,15.000000,,,,0.000000,4.000000,4.000000,4.000000,4.000000,4.000000,100.000000,,,,,,,,,,,,,,,,,,,,,,
1629975495.075522,4.000000,0.000000,3513.846191,3652.820557,3555.897461,3712.820557,3509.743652,16239.000000,1.000000,15.000000,,,,0.000000,4.000000,4.000000,4.000000,4.000000,4.000000,100.000000,,,,,,,,2.000000,0.000000,0.276013,-0.269531,0.687500,0.615234,0.737316,-0.734386,0.050782,-59.910141,-52.316895,44.241962,,,
1629975495.083437,5.000000,0.000000,3494.358887,3663.076904,3558.461426,3716.923096,3479.487061,450.000000,1.000000,15.000000,,,,0.000000,4.000000,4.000000,4.000000,4.000000,4.000000,100.000000,,,,,,,,,,,,,,,,,,,,,,
